File: XRD/Homogenization/10_W0.40Ta0.40Cr0.10Ti0.10_HIP1800C_8h_1_txt.txt
1.544427
20.2968	40.2222	2.1140
20.6077	41.8889	2.1574
20.9186	35.7895	1.9410
21.2296	37.6842	1.9917
21.5405	34.6000	1.8601
21.8514	36.6000	1.9131
22.1623	32.3000	1.7972
22.4732	32.0000	1.7889
22.7842	29.8000	1.7263
23.0951	34.2000	1.8493
23.4060	30.0000	1.7321
23.7169	30.9000	1.7578
24.0278	26.5000	1.6279
24.3388	27.3000	1.6523
24.6497	27.4000	1.6553
24.9606	26.4000	1.6248
25.2715	27.2381	1.6106
25.5824	25.4286	1.5562
25.8934	25.7273	1.5293
26.2043	24.2727	1.4855
26.5152	20.7273	1.3727
26.8261	23.5455	1.4630
27.1371	23.7273	1.4687
27.4480	23.6364	1.4659
27.7589	22.6364	1.4345
28.0698	21.7273	1.4054
28.3807	21.9091	1.4113
28.6917	22.0909	1.4171
29.0026	18.5455	1.2984
29.3135	20.8182	1.3757
29.6244	21.9130	1.3804
29.9353	19.6522	1.3072
30.2463	21.0000	1.3229
30.5572	19.0833	1.2611
30.8681	18.4167	1.2388
31.1790	17.5833	1.2105
31.4900	17.0000	1.1902
31.8009	19.0000	1.2583
32.1118	19.2500	1.2666
32.4227	17.6667	1.2134
32.7336	16.0833	1.1577
33.0446	17.4167	1.2047
33.3555	16.4167	1.1696
33.6664	16.2500	1.1637
33.9773	15.6000	1.1171
34.2882	16.0000	1.1314
34.5992	15.9231	1.1067
34.9101	16.0769	1.1121
35.2210	15.9231	1.1067
35.5319	14.7692	1.0659
35.8428	17.3077	1.1538
36.1538	15.6923	1.0987
36.4647	15.3077	1.0851
36.7756	14.9231	1.0714
37.0865	17.3077	1.1538
37.3975	15.0769	1.0769
37.7084	13.7692	1.0292
38.0193	15.5385	1.0933
38.3302	16.9630	1.1209
38.6411	21.0370	1.2483
38.9521	31.1111	1.5181
39.2630	65.0000	2.1547
39.5739	213.0000	3.9005
39.8848	266.0000	4.3589
40.1957	54.5000	1.9730
40.5067	26.2857	1.3702
40.8176	16.1429	1.0738
41.1285	15.5714	1.0546
41.4394	14.5714	1.0202
41.7504	13.3571	0.9768
42.0613	11.7857	0.9175
42.3722	13.6429	0.9872
42.6831	11.9310	0.9071
42.9940	13.3793	0.9606
43.3050	11.7931	0.9018
43.6159	10.5333	0.8380
43.9268	9.5333	0.7972
44.2377	11.8000	0.8869
44.5486	11.6000	0.8794
44.8596	10.2667	0.8273
45.1705	12.9333	0.9286
45.4814	10.7333	0.8459
45.7923	10.1333	0.8219
46.1032	10.1333	0.8219
46.4142	9.8000	0.8083
46.7251	10.5161	0.8237
47.0360	11.0323	0.8437
47.3469	9.4839	0.7822
47.6579	8.6875	0.7369
47.9688	8.2500	0.7181
48.2797	8.7500	0.7395
48.5906	8.1250	0.7126
48.9015	10.6875	0.8173
49.2125	9.6875	0.7781
49.5234	9.1250	0.7552
49.8343	9.0625	0.7526
50.1452	9.3750	0.7655
50.4561	9.8750	0.7856
50.7671	10.4242	0.7948
51.0780	8.0000	0.6963
51.3889	9.8182	0.7714
51.6998	7.5294	0.6655
52.0107	9.1765	0.7347
52.3217	10.2353	0.7759
52.6326	8.0588	0.6885
52.9435	9.2353	0.7371
53.2544	9.7647	0.7579
53.5654	8.2941	0.6985
53.8763	7.7647	0.6758
54.1872	8.0000	0.6860
54.4981	7.3529	0.6577
54.8090	8.1143	0.6809
55.1200	8.5714	0.6999
55.4309	9.6571	0.7429
55.7418	8.3333	0.6804
56.0527	9.8889	0.7412
56.3636	10.7778	0.7738
56.6746	13.6667	0.8714
56.9855	24.3889	1.1640
57.2964	46.8333	1.6130
57.6073	55.7222	1.7595
57.9183	25.4444	1.1889
58.2292	12.8889	0.8462
58.5401	9.3514	0.7110
58.8510	8.4324	0.6751
59.1619	8.5946	0.6816
59.4729	7.2973	0.6281
59.7838	7.2632	0.6183
60.0947	7.8421	0.6425
60.4056	8.4211	0.6657
60.7165	7.3158	0.6205
61.0275	7.7895	0.6403
61.3384	6.4211	0.5813
61.6493	7.4737	0.6272
61.9602	8.2105	0.6574
62.2711	9.2632	0.6982
62.5821	7.1795	0.6068
62.8930	7.1795	0.6068
63.2039	7.2821	0.6111
63.5148	7.0256	0.6002
63.8258	7.0732	0.5874
64.1367	7.6098	0.6093
64.4476	7.8537	0.6190
64.7585	7.2683	0.5954
65.0694	6.0465	0.5303
65.3804	7.3953	0.5865
65.6913	6.9302	0.5677
66.0022	7.4091	0.5803
66.3131	6.5333	0.5389
66.6240	6.1778	0.5240
66.9350	6.3111	0.5296
67.2459	8.0851	0.5866
67.5568	7.7872	0.5756
67.8677	5.9149	0.5017
68.1787	6.3830	0.5212
68.4896	7.3878	0.5491
68.8005	6.4082	0.5114
69.1114	8.2449	0.5801
69.4223	7.7143	0.5611
69.7333	6.5882	0.5083
70.0442	8.6667	0.5830
70.3551	9.1373	0.5986
70.6660	10.4231	0.6332
70.9769	11.1321	0.6481
71.2879	16.9811	0.8005
71.5988	29.1321	1.0485
71.9097	51.2222	1.3774
72.2206	67.6000	1.5679
72.5315	46.1818	1.2959
72.8425	21.2000	0.8780
73.1534	12.0714	0.6566
73.4643	8.4211	0.5436
73.7752	8.8070	0.5559
74.0862	8.8772	0.5581
74.3971	7.5172	0.5091
74.7080	6.9492	0.4853
75.0189	7.1864	0.4936
75.3298	7.1525	0.4924
75.6408	6.2667	0.4570
75.9517	6.5574	0.4637
76.2626	6.5902	0.4648
76.5735	6.6452	0.4630
76.8844	6.2258	0.4481
77.1954	6.5397	0.4556
77.5063	6.6032	0.4578
77.8172	5.8125	0.4262
78.1281	6.2813	0.4430
78.4390	7.0769	0.4666
78.7500	6.7385	0.4553
79.0609	6.6364	0.4484
79.3718	6.6970	0.4505
79.6827	6.5075	0.4407
79.9937	6.0597	0.4253
80.3046	6.1176	0.4242
80.6155	6.2353	0.4282
80.9264	7.1594	0.4555
81.2373	6.2571	0.4228
81.5483	6.2571	0.4228
81.8592	6.9143	0.4445
82.1701	7.0423	0.4454
82.4810	6.8611	0.4366
82.7919	6.5000	0.4249
83.1029	7.2778	0.4496
83.4138	7.0685	0.4401
83.7247	6.8378	0.4299
84.0356	8.4865	0.4789
84.3466	8.5405	0.4804
84.6575	9.7333	0.5095
84.9684	13.3421	0.5925
85.2793	17.7368	0.6832
85.5902	22.3158	0.7663
85.9012	25.5385	0.8092
86.2121	18.2564	0.6842
86.5230	11.2821	0.5379
86.8339	8.9231	0.4783
87.1448	8.5250	0.4617
87.4558	9.2250	0.4802
87.7667	8.6500	0.4650
88.0776	8.3000	0.4555
88.3885	9.7805	0.4884
88.6994	8.3415	0.4511
89.0104	8.3415	0.4511
89.3213	8.5610	0.4570
89.6322	8.9762	0.4623
89.9431	10.0952	0.4903
90.2541	10.5952	0.5023
90.5650	9.2143	0.4684
90.8759	10.5349	0.4950
91.1868	10.3023	0.4895
91.4977	10.7209	0.4993
91.8087	10.5455	0.4896
92.1196	11.5682	0.5128
92.4305	10.4545	0.4874
92.7414	11.6136	0.5138
93.0523	12.3333	0.5235
93.3633	12.6889	0.5310
93.6742	12.0000	0.5164
93.9851	13.1111	0.5398
94.2960	13.2174	0.5360
94.6070	12.3478	0.5181
94.9179	12.8261	0.5280
95.2288	13.8478	0.5487
95.5397	13.9787	0.5454
95.8506	13.7660	0.5412
96.1616	13.8085	0.5420
96.4725	14.0842	0.5445
96.7834	14.7917	0.5551
97.0943	16.4167	0.5848
97.4052	17.4583	0.6031
97.7162	18.0206	0.6096
98.0271	21.6122	0.6641
98.3380	27.5102	0.7493
98.6489	29.3265	0.7736
98.9598	35.3469	0.8493
99.2708	36.4600	0.8539
99.5817	30.9400	0.7866
99.8926	23.9000	0.6914
100.2035	18.4800	0.6079
100.5145	18.8431	0.6078
100.8254	17.7255	0.5895
101.1363	17.6078	0.5876
101.4472	16.5490	0.5696
101.7581	17.0588	0.5783
102.0691	17.4231	0.5788
102.3800	16.0577	0.5557
102.6909	16.3077	0.5600
103.0018	16.7308	0.5672
103.3127	16.1143	0.5540
103.6237	15.9057	0.5478
103.9346	17.0377	0.5670
104.2455	17.7736	0.5791
104.5564	17.2075	0.5698
104.8674	16.1667	0.5472
105.1783	16.6111	0.5546
105.4892	16.0556	0.5453
105.8001	16.8519	0.5586
106.1110	15.8165	0.5387
106.4220	16.0000	0.5394
106.7329	17.9091	0.5706
107.0438	16.1818	0.5424
107.3547	16.2364	0.5433
107.6656	16.8649	0.5512
107.9766	16.0536	0.5354
108.2875	16.9643	0.5504
108.5984	16.9286	0.5498
108.9093	17.1154	0.5737
109.2202	16.3404	0.5896
109.5312	16.6024	0.6325
109.8421	16.2222	0.6713
109.9834	17.3433	0.7195