File: XRD/Homogenization/10_W0.40Ta0.40Cr0.10Ti0.10_HIP1800C 8h_2.xye
1.544427
20.2968	38.0000	2.0548
20.6077	40.4444	2.1199
20.9186	40.7368	2.0708
21.2296	37.4737	1.9861
21.5405	36.8000	1.9183
21.8514	35.0000	1.8708
22.1623	32.6000	1.8055
22.4732	33.8000	1.8385
22.7842	34.7000	1.8628
23.0951	30.8000	1.7550
23.4060	30.6000	1.7493
23.7169	30.4000	1.7436
24.0278	30.1000	1.7349
24.3388	27.4000	1.6553
24.6497	27.4000	1.6553
24.9606	25.4000	1.5937
25.2715	26.2857	1.5822
25.5824	29.9048	1.6876
25.8934	27.2727	1.5746
26.2043	24.8182	1.5021
26.5152	24.5455	1.4938
26.8261	24.2727	1.4855
27.1371	25.5455	1.5239
27.4480	25.6364	1.5266
27.7589	21.9091	1.4113
28.0698	21.4545	1.3966
28.3807	23.7273	1.4687
28.6917	22.9091	1.4431
29.0026	21.6364	1.4025
29.3135	18.8182	1.3080
29.6244	20.0000	1.3188
29.9353	22.5217	1.3994
30.2463	19.6667	1.2802
30.5572	19.2500	1.2666
30.8681	19.2500	1.2666
31.1790	18.0000	1.2247
31.4900	17.1667	1.1961
31.8009	18.2500	1.2332
32.1118	19.0000	1.2583
32.4227	20.3333	1.3017
32.7336	16.9167	1.1873
33.0446	17.6667	1.2134
33.3555	17.6667	1.2134
33.6664	16.7500	1.1815
33.9773	17.2000	1.1730
34.2882	14.5600	1.0793
34.5992	16.0000	1.1094
34.9101	16.9231	1.1410
35.2210	16.3077	1.1200
35.5319	15.8462	1.1041
35.8428	15.7692	1.1014
36.1538	14.2308	1.0463
36.4647	14.1538	1.0434
36.7756	15.7692	1.1014
37.0865	14.6923	1.0631
37.3975	14.5385	1.0575
37.7084	15.5385	1.0933
38.0193	15.6154	1.0960
38.3302	15.9259	1.0861
38.6411	25.2593	1.3679
38.9521	33.5556	1.5766
39.2630	78.2857	2.3647
39.5739	236.6429	4.1113
39.8848	215.2143	3.9208
40.1957	53.7143	1.9588
40.5067	24.7143	1.3286
40.8176	18.9286	1.1628
41.1285	16.2143	1.0762
41.4394	15.7143	1.0595
41.7504	14.7857	1.0277
42.0613	13.5714	0.9846
42.3722	12.0714	0.9286
42.6831	12.4828	0.9278
42.9940	10.6897	0.8586
43.3050	12.4138	0.9253
43.6159	12.2000	0.9018
43.9268	11.2667	0.8667
44.2377	10.0667	0.8192
44.5486	11.0000	0.8563
44.8596	10.0000	0.8165
45.1705	10.6667	0.8433
45.4814	9.9333	0.8138
45.7923	10.2000	0.8246
46.1032	10.8667	0.8511
46.4142	8.4000	0.7483
46.7251	11.4839	0.8608
47.0360	10.8387	0.8362
47.3469	10.7742	0.8337
47.6579	10.9375	0.8268
47.9688	10.0000	0.7906
48.2797	10.1875	0.7979
48.5906	9.0000	0.7500
48.9015	9.4375	0.7680
49.2125	8.9375	0.7474
49.5234	8.6875	0.7369
49.8343	9.1875	0.7578
50.1452	9.4375	0.7680
50.4561	9.1875	0.7578
50.7671	8.7273	0.7273
51.0780	8.7273	0.7273
51.3889	9.0909	0.7423
51.6998	8.8235	0.7204
52.0107	8.5294	0.7083
52.3217	9.0000	0.7276
52.6326	8.7647	0.7180
52.9435	9.4118	0.7441
53.2544	8.7647	0.7180
53.5654	8.8235	0.7204
53.8763	9.9412	0.7647
54.1872	10.0588	0.7692
54.4981	9.2353	0.7371
54.8090	8.1714	0.6833
55.1200	9.0286	0.7183
55.4309	9.4286	0.7340
55.7418	10.2222	0.7536
56.0527	10.5000	0.7638
56.3636	13.2222	0.8571
56.6746	21.2778	1.0872
56.9855	36.7778	1.4294
57.2964	59.1111	1.8122
57.6073	52.4444	1.7069
57.9183	26.1667	1.2057
58.2292	13.6667	0.8714
58.5401	11.0811	0.7739
58.8510	9.2973	0.7089
59.1619	8.5405	0.6794
59.4729	9.0270	0.6985
59.7838	8.3684	0.6637
60.0947	7.4737	0.6272
60.4056	8.8947	0.6842
60.7165	7.6316	0.6338
61.0275	8.4211	0.6657
61.3384	7.1053	0.6115
61.6493	6.9474	0.6047
61.9602	7.8947	0.6446
62.2711	8.2632	0.6595
62.5821	7.3846	0.6154
62.8930	7.2821	0.6111
63.2039	8.0513	0.6426
63.5148	7.2821	0.6111
63.8258	8.5366	0.6453
64.1367	7.7073	0.6132
64.4476	6.5366	0.5647
64.7585	8.9268	0.6599
65.0694	7.7209	0.5993
65.3804	6.5581	0.5523
65.6913	7.9070	0.6064
66.0022	7.9091	0.5996
66.3131	8.0000	0.5963
66.6240	7.0667	0.5604
66.9350	7.7778	0.5879
67.2459	6.8936	0.5416
67.5568	8.5106	0.6018
67.8677	7.2766	0.5565
68.1787	7.1915	0.5532
68.4896	8.2449	0.5801
68.8005	9.3061	0.6163
69.1114	8.8571	0.6013
69.4223	8.6531	0.5943
69.7333	9.5294	0.6113
70.0442	8.7843	0.5869
70.3551	10.5882	0.6444
70.6660	14.0385	0.7348
70.9769	15.9245	0.7752
71.2879	25.5094	0.9811
71.5988	41.6226	1.2533
71.9097	62.3333	1.5194
72.2206	63.7818	1.5229
72.5315	41.0909	1.2224
72.8425	19.6000	0.8442
73.1534	12.9643	0.6804
73.4643	10.4211	0.6047
73.7752	8.7368	0.5537
74.0862	8.7368	0.5537
74.3971	8.2759	0.5342
74.7080	8.5424	0.5381
75.0189	8.4746	0.5360
75.3298	8.8814	0.5487
75.6408	8.0333	0.5175
75.9517	8.5574	0.5297
76.2626	7.6721	0.5015
76.5735	7.8387	0.5029
76.8844	7.6452	0.4966
77.1954	7.9683	0.5030
77.5063	6.7937	0.4644
77.8172	9.3125	0.5395
78.1281	7.6250	0.4881
78.4390	8.2462	0.5037
78.7500	7.9077	0.4933
79.0609	7.3030	0.4704
79.3718	7.8485	0.4877
79.6827	7.4627	0.4720
79.9937	7.0746	0.4595
80.3046	8.0882	0.4877
80.6155	7.5294	0.4706
80.9264	6.9855	0.4500
81.2373	8.3429	0.4882
81.5483	7.6571	0.4677
81.8592	8.2857	0.4866
82.1701	8.9577	0.5023
82.4810	8.4722	0.4851
82.7919	8.3333	0.4811
83.1029	9.1389	0.5038
83.4138	8.8219	0.4916
83.7247	8.8108	0.4880
84.0356	9.4595	0.5056
84.3466	10.1081	0.5227
84.6575	12.4267	0.5757
84.9684	15.4211	0.6370
85.2793	18.3947	0.6958
85.5902	23.9737	0.7943
85.9012	22.7692	0.7641
86.2121	14.8205	0.6165
86.5230	11.5385	0.5439
86.8339	10.2564	0.5128
87.1448	9.8500	0.4962
87.4558	9.9250	0.4981
87.7667	9.5500	0.4886
88.0776	9.2500	0.4809
88.3885	9.6341	0.4847
88.6994	9.7073	0.4866
89.0104	9.5610	0.4829
89.3213	10.0976	0.4963
89.6322	10.4524	0.4989
89.9431	9.4048	0.4732
90.2541	11.3095	0.5189
90.5650	9.3810	0.4726
90.8759	10.6047	0.4966
91.1868	10.8372	0.5020
91.4977	10.9767	0.5052
91.8087	11.1818	0.5041
92.1196	11.3864	0.5087
92.4305	11.8409	0.5188
92.7414	12.6818	0.5369
93.0523	11.9556	0.5154
93.3633	11.9333	0.5150
93.6742	11.3333	0.5018
93.9851	13.2000	0.5416
94.2960	13.1957	0.5356
94.6070	13.9783	0.5512
94.9179	14.1304	0.5542
95.2288	13.8913	0.5495
95.5397	13.1064	0.5281
95.8506	14.0213	0.5462
96.1616	14.8085	0.5613
96.4725	15.3263	0.5680
96.7834	16.4792	0.5859
97.0943	17.1458	0.5977
97.4052	17.9792	0.6120
97.7162	20.5361	0.6507
98.0271	22.7959	0.6821
98.3380	28.4286	0.7617
98.6489	34.0612	0.8337
98.9598	35.7143	0.8537
99.2708	35.0800	0.8376
99.5817	27.7800	0.7454
99.8926	19.8200	0.6296
100.2035	18.3200	0.6053
100.5145	17.4902	0.5856
100.8254	16.8431	0.5747
101.1363	17.4314	0.5846
101.4472	16.7255	0.5727
101.7581	16.7647	0.5733
102.0691	15.7308	0.5500
102.3800	15.9038	0.5530
102.6909	16.0962	0.5564
103.0018	17.2500	0.5760
103.3127	17.5810	0.5787
103.6237	15.6604	0.5436
103.9346	18.2075	0.5861
104.2455	16.2830	0.5543
104.5564	16.0377	0.5501
104.8674	17.0926	0.5626
105.1783	17.1111	0.5629
105.4892	17.5000	0.5693
105.8001	17.2593	0.5653
106.1110	15.9266	0.5406
106.4220	16.9636	0.5554
106.7329	17.1091	0.5577
107.0438	16.9818	0.5557
107.3547	17.2182	0.5595
107.6656	18.3784	0.5754
107.9766	17.0357	0.5516
108.2875	16.2679	0.5390
108.5984	17.4464	0.5582
108.9093	16.1346	0.5570
109.2202	16.2128	0.5873
109.5312	17.4458	0.6484
109.8421	16.6111	0.6793
109.9834	18.0896	0.7348