File: XRD/Homogenization/10_W0.40Ta0.40Cr0.10Ti0.10_HIP1800C_10 h_fast_cooling.xye
1.544427
20.3039	21.6133	0.3796
20.6148	21.9667	0.3827
20.9257	21.6867	0.3802
21.2366	21.5600	0.3791
21.5475	21.1667	0.3756
21.8585	21.5933	0.3794
22.1694	20.6933	0.3714
22.4803	20.1200	0.3662
22.7912	19.9267	0.3645
23.1021	20.1933	0.3669
23.4131	19.1000	0.3568
23.7240	18.9667	0.3556
24.0349	18.8533	0.3545
24.3458	18.7000	0.3531
24.6568	19.2600	0.3583
24.9677	18.0533	0.3469
25.2786	18.0400	0.3468
25.5895	17.6667	0.3432
25.9004	17.9800	0.3462
26.2114	17.3733	0.3403
26.5223	17.3333	0.3399
26.8332	17.6667	0.3432
27.1441	17.0200	0.3368
27.4550	16.9067	0.3357
27.7660	16.3800	0.3305
28.0769	16.6800	0.3335
28.3878	16.4867	0.3315
28.6987	16.1867	0.3285
29.0096	15.3667	0.3201
29.3206	15.6000	0.3225
29.6315	15.0267	0.3165
29.9424	15.4867	0.3213
30.2533	15.6933	0.3235
30.5643	14.6467	0.3125
30.8752	14.8200	0.3143
31.1861	14.4600	0.3105
31.4970	14.5267	0.3112
31.8079	14.1733	0.3074
32.1189	14.3200	0.3090
32.4298	13.8800	0.3042
32.7407	13.5600	0.3007
33.0516	14.1933	0.3076
33.3625	13.1267	0.2958
33.6735	12.8733	0.2930
33.9844	13.5400	0.3004
34.2953	13.5133	0.3001
34.6062	13.3467	0.2983
34.9172	13.0400	0.2948
35.2281	12.8867	0.2931
35.5390	12.3733	0.2872
35.8499	12.2800	0.2861
36.1608	12.5667	0.2894
36.4718	12.0800	0.2838
36.7827	11.6933	0.2792
37.0936	12.1467	0.2846
37.4045	11.6933	0.2792
37.7154	12.3267	0.2867
38.0264	12.9600	0.2939
38.3373	14.9467	0.3157
38.6482	17.8400	0.3449
38.9591	24.9533	0.4079
39.2700	65.1533	0.6591
39.5810	239.4333	1.2634
39.8919	195.6733	1.1421
40.2028	45.9667	0.5536
40.5137	21.1933	0.3759
40.8247	15.5467	0.3219
41.1356	13.2000	0.2966
41.4465	12.2467	0.2857
41.7574	11.1800	0.2730
42.0683	10.9467	0.2701
42.3793	10.0400	0.2587
42.6902	10.6200	0.2661
43.0011	10.7133	0.2672
43.3120	10.0600	0.2590
43.6229	10.2067	0.2609
43.9339	9.3067	0.2491
44.2448	9.1867	0.2475
44.5557	9.4800	0.2514
44.8666	9.0333	0.2454
45.1775	8.9267	0.2439
45.4885	9.2067	0.2477
45.7994	8.6867	0.2406
46.1103	8.8933	0.2435
46.4212	8.6133	0.2396
46.7322	8.6067	0.2395
47.0431	7.9333	0.2300
47.3540	8.3933	0.2365
47.6649	7.8600	0.2289
47.9758	7.4933	0.2235
48.2868	8.1000	0.2324
48.5977	8.3267	0.2356
48.9086	7.6267	0.2255
49.2195	7.6533	0.2259
49.5304	7.8467	0.2287
49.8414	7.4467	0.2228
50.1523	7.6733	0.2262
50.4632	7.7200	0.2269
50.7741	7.3267	0.2210
51.0851	7.2467	0.2198
51.3960	7.3600	0.2215
51.7069	7.9133	0.2297
52.0178	7.1000	0.2176
52.3287	7.4667	0.2231
52.6397	7.1733	0.2187
52.9506	7.4133	0.2223
53.2615	7.4667	0.2231
53.5724	7.3667	0.2216
53.8833	7.0267	0.2164
54.1943	6.7800	0.2126
54.5052	7.2800	0.2203
54.8161	7.4867	0.2234
55.1270	7.2600	0.2200
55.4379	7.7200	0.2269
55.7489	7.8400	0.2286
56.0598	8.9733	0.2446
56.3707	10.5533	0.2652
56.6816	18.0133	0.3465
56.9926	38.9933	0.5099
57.3035	68.9800	0.6781
57.6144	58.5000	0.6245
57.9253	24.7667	0.4063
58.2362	12.3667	0.2871
58.5472	9.1733	0.2473
58.8581	7.5000	0.2236
59.1690	7.5000	0.2236
59.4799	7.3200	0.2209
59.7908	6.7267	0.2118
60.1018	6.8600	0.2139
60.4127	6.3533	0.2058
60.7236	6.4533	0.2074
61.0345	6.7200	0.2117
61.3455	6.5333	0.2087
61.6564	6.4333	0.2071
61.9673	6.4267	0.2070
62.2782	6.5467	0.2089
62.5891	6.5533	0.2090
62.9001	6.6133	0.2100
63.2110	6.2533	0.2042
63.5219	6.1133	0.2019
63.8328	6.2067	0.2034
64.1437	6.4600	0.2075
64.4547	6.2400	0.2040
64.7656	5.8267	0.1971
65.0765	6.2200	0.2036
65.3874	6.0800	0.2013
65.6983	6.2933	0.2048
66.0093	6.1400	0.2023
66.3202	6.3400	0.2056
66.6311	6.0867	0.2014
66.9420	6.1867	0.2031
67.2530	5.6800	0.1946
67.5639	6.2667	0.2044
67.8748	5.5200	0.1918
68.1857	6.1400	0.2023
68.4966	5.9600	0.1993
68.8076	6.2933	0.2048
69.1185	6.0000	0.2000
69.4294	6.6467	0.2105
69.7403	6.7933	0.2128
70.0512	7.5467	0.2243
70.3622	7.8600	0.2289
70.6731	8.5333	0.2385
70.9840	12.0000	0.2828
71.2949	20.9467	0.3737
71.6059	43.5800	0.5390
71.9168	68.9933	0.6782
72.2277	66.7533	0.6671
72.5386	36.8467	0.4956
72.8495	16.3400	0.3301
73.1605	9.6600	0.2538
73.4714	7.9067	0.2296
73.7823	7.0200	0.2163
74.0932	6.8933	0.2144
74.4041	6.2467	0.2041
74.7151	6.3200	0.2053
75.0260	5.6467	0.1940
75.3369	5.9333	0.1989
75.6478	6.0000	0.2000
75.9587	5.8933	0.1982
76.2697	5.8000	0.1966
76.5806	5.5933	0.1931
76.8915	5.7867	0.1964
77.2024	5.7267	0.1954
77.5134	5.4267	0.1902
77.8243	5.3333	0.1886
78.1352	5.4733	0.1910
78.4461	5.5267	0.1919
78.7570	5.5467	0.1923
79.0680	5.6867	0.1947
79.3789	5.3733	0.1893
79.6898	5.2000	0.1862
80.0007	5.1933	0.1861
80.3116	5.5800	0.1929
80.6226	5.5333	0.1921
80.9335	5.1600	0.1855
81.2444	5.5467	0.1923
81.5553	5.5333	0.1921
81.8662	5.3533	0.1889
82.1772	5.3467	0.1888
82.4881	5.4867	0.1913
82.7990	5.3800	0.1894
83.1099	5.3667	0.1892
83.4209	5.5867	0.1930
83.7318	5.3333	0.1886
84.0427	5.9133	0.1986
84.3536	6.9533	0.2153
84.6645	8.4200	0.2369
84.9755	13.1067	0.2956
85.2864	17.8333	0.3448
85.5973	18.9000	0.3550
85.9082	15.7400	0.3239
86.2191	10.3800	0.2631
86.5301	7.2600	0.2200
86.8410	6.1733	0.2029
87.1519	5.6333	0.1938
87.4628	5.5800	0.1929
87.7738	5.3933	0.1896
88.0847	5.2267	0.1867
88.3956	5.1333	0.1850
88.7065	5.1533	0.1854
89.0174	5.1400	0.1851
89.3284	5.4600	0.1908
89.6393	4.9600	0.1818
89.9502	5.3267	0.1884
90.2611	5.2000	0.1862
90.5720	5.1867	0.1860
90.8830	5.5067	0.1916
91.1939	5.1067	0.1845
91.5048	5.1533	0.1854
91.8157	5.2200	0.1865
92.1266	4.9200	0.1811
92.4376	5.2000	0.1862
92.7485	5.4200	0.1901
93.0594	4.7133	0.1773
93.3703	5.1267	0.1849
93.6813	5.3133	0.1882
93.9922	5.5200	0.1918
94.3031	5.2333	0.1868
94.6140	5.7800	0.1963
94.9249	5.4333	0.1903
95.2359	5.2467	0.1870
95.5468	5.4467	0.1906
95.8577	5.5933	0.1931
96.1686	6.1533	0.2025
96.4795	6.2733	0.2045
96.7905	6.6467	0.2105
97.1014	7.4067	0.2222
97.4123	8.5667	0.2390
97.7232	11.2000	0.2733
98.0342	15.7267	0.3238
98.3451	21.8733	0.3819
98.6560	25.8067	0.4148
98.9669	26.5533	0.4207
99.2778	22.5800	0.3880
99.5888	15.7200	0.3237
99.8997	10.5867	0.2657
100.2106	8.0467	0.2316
100.5215	7.0400	0.2166
100.8324	6.2800	0.2046
101.1434	5.6933	0.1948
101.4543	6.0267	0.2004
101.7652	5.6533	0.1941
102.0761	5.7133	0.1952
102.3870	5.7200	0.1953
102.6980	5.6000	0.1932
103.0089	5.9600	0.1993
103.3198	5.3933	0.1896
103.6307	5.6000	0.1932
103.9417	5.6133	0.1934
104.2526	5.4467	0.1906
104.5635	5.4933	0.1914
104.8744	5.6133	0.1934
105.1853	5.7067	0.1950
105.4963	5.5267	0.1919
105.8072	5.6400	0.1939
106.1181	5.5200	0.1918
106.4290	6.0133	0.2002
106.7399	5.5600	0.1925
107.0509	5.5867	0.1930
107.3618	5.9800	0.1997
107.6727	5.3800	0.1894
107.9836	6.0400	0.2007
108.2945	5.7467	0.1957
108.6055	5.8800	0.1980
108.9164	5.7933	0.1965
109.2273	5.6933	0.1948
109.5382	5.7333	0.1955
109.8492	5.9800	0.1997
109.9905	6.0267	0.2004