File: XRD/Homogenization/4_WTaV_HT1800C_8h.xye
1.540593
20.2968	36.0000	4.2426
20.6077	39.5000	4.4441
20.9186	39.0000	4.4159
21.2296	32.0000	4.0000
21.5405	35.0000	4.1833
21.8514	36.5000	4.2720
22.1623	35.0000	4.1833
22.4732	34.0000	4.1231
22.7842	35.5000	4.2131
23.0951	26.5000	3.6401
23.4060	30.5000	3.9051
23.7169	28.5000	3.7749
24.0278	29.0000	3.8079
24.3388	29.5000	3.8406
24.6497	27.0000	3.6742
24.9606	23.5000	3.4278
25.2715	17.5000	2.9580
25.5824	15.5000	2.7839
25.8934	26.0000	3.6056
26.2043	24.0000	3.4641
26.5152	20.0000	3.1623
26.8261	19.5000	3.1225
27.1371	22.5000	3.3541
27.4480	20.9091	3.0829
27.7589	23.1818	3.2461
28.0698	21.8182	3.1492
28.3807	24.5455	3.3402
28.6917	24.5455	3.3402
29.0026	18.6364	2.9105
29.3135	20.0000	3.0151
29.6244	21.8182	3.1492
29.9353	17.2727	2.8020
30.2463	20.4545	3.0492
30.5572	20.9091	3.0829
30.8681	19.0909	2.9458
31.1790	15.9091	2.6891
31.4900	16.8182	2.7649
31.8009	13.1818	2.4478
32.1118	14.0909	2.5308
32.4227	12.7273	2.4052
32.7336	18.6364	2.9105
33.0446	15.9091	2.6891
33.3555	15.9091	2.6891
33.6664	15.9091	2.6891
33.9773	11.3636	2.2727
34.2882	14.0909	2.5308
34.5992	15.4545	2.6504
34.9101	19.5455	2.9807
35.2210	16.8182	2.7649
35.5319	18.1818	2.8748
35.8428	16.3636	2.7273
36.1538	15.7692	2.4627
36.4647	13.0769	2.2427
36.7756	8.8462	1.8446
37.0865	9.6154	1.9231
37.3975	11.1538	2.0712
37.7084	14.6154	2.3709
38.0193	19.2308	2.7196
38.3302	18.4615	2.6647
38.6411	8.0769	1.7625
38.9521	11.1538	2.0712
39.2630	13.8462	2.3077
39.5739	19.2308	2.7196
39.8848	56.5385	4.6632
40.1957	133.0769	7.1543
40.5067	21.9231	2.9038
40.8176	18.4615	2.6647
41.1285	12.3077	2.1757
41.4394	14.6154	2.3709
41.7504	13.8462	2.3077
42.0613	13.0769	2.2427
42.3722	8.4615	1.8040
42.6831	9.6154	1.9231
42.9940	10.0000	1.9612
43.3050	11.1538	2.0712
43.6159	14.6154	2.3709
43.9268	8.0769	1.7625
44.2377	9.2308	1.8842
44.5486	8.0769	1.7625
44.8596	8.6667	1.6997
45.1705	9.6667	1.7951
45.4814	6.8750	1.4658
45.7923	9.3750	1.7116
46.1032	6.8750	1.4658
46.4142	5.9375	1.3622
46.7251	8.1250	1.5934
47.0360	9.3750	1.7116
47.3469	8.1250	1.5934
47.6579	8.1250	1.5934
47.9688	6.2500	1.3975
48.2797	9.3750	1.7116
48.5906	8.1250	1.5934
48.9015	7.1875	1.4987
49.2125	7.8125	1.5625
49.5234	7.5000	1.5309
49.8343	10.6250	1.8222
50.1452	8.7500	1.6536
50.4561	6.8750	1.4658
50.7671	9.3750	1.7116
51.0780	9.3750	1.7116
51.3889	7.1875	1.4987
51.6998	7.1875	1.4987
52.0107	5.9375	1.3622
52.3217	9.0625	1.6829
52.6326	10.5882	1.7647
52.9435	6.7647	1.4105
53.2544	6.7647	1.4105
53.5654	8.0556	1.4959
53.8763	7.5000	1.4434
54.1872	7.2222	1.4164
54.4981	9.7222	1.6434
54.8090	7.5000	1.4434
55.1200	9.7222	1.6434
55.4309	7.5000	1.4434
55.7418	7.5000	1.4434
56.0527	8.3333	1.5215
56.3636	8.6111	1.5466
56.6746	11.3889	1.7786
56.9855	7.7778	1.4699
57.2964	11.3889	1.7786
57.6073	12.7778	1.8840
57.9183	56.6667	3.9675
58.2292	13.8889	1.9642
58.5401	11.3889	1.7786
58.8510	9.1667	1.5957
59.1619	8.8889	1.5713
59.4729	9.4444	1.6197
59.7838	8.8889	1.5713
60.0947	13.3333	1.9245
60.4056	12.2222	1.8426
60.7165	8.3333	1.5215
61.0275	10.0000	1.6667
61.3384	9.7222	1.6434
61.6493	12.2500	1.7500
61.9602	8.2500	1.4361
62.2711	10.7500	1.6394
62.5821	10.0000	1.5811
62.8930	10.5000	1.6202
63.2039	6.5000	1.2748
63.5148	10.0000	1.5811
63.8258	11.7500	1.7139
64.1367	9.7500	1.5612
64.4476	10.7143	1.5972
64.7585	13.0952	1.7658
65.0694	10.2381	1.5613
65.3804	12.1429	1.7003
65.6913	10.0000	1.5076
66.0022	9.7727	1.4903
66.3131	11.8182	1.6389
66.6240	13.4091	1.7457
66.9350	13.1818	1.7309
67.2459	9.5455	1.4729
67.5568	12.5000	1.6855
67.8677	14.3478	1.7661
68.1787	11.3043	1.5676
68.4896	11.3043	1.5676
68.8005	12.6087	1.6556
69.1114	10.8000	1.4697
69.4223	9.0000	1.3416
69.7333	12.0000	1.5492
70.0442	11.4000	1.5100
70.3551	13.6538	1.6204
70.6660	11.5385	1.4896
70.9769	10.9615	1.4519
71.2879	14.8148	1.6563
71.5988	12.5926	1.5271
71.9097	15.7407	1.7073
72.2206	24.4444	2.1276
72.5315	47.9630	2.9803
72.8425	71.8519	3.6477
73.1534	22.5926	2.0454
73.4643	17.7778	1.8144
73.7752	14.1071	1.5872
74.0862	12.6786	1.5047
74.3971	12.8571	1.5152
74.7080	12.3214	1.4833
75.0189	8.9286	1.2627
75.3298	10.5000	1.3229
75.6408	11.0000	1.3540
75.9517	8.8710	1.1962
76.2626	11.2903	1.3495
76.5735	10.3226	1.2903
76.8844	10.0000	1.2700
77.1954	10.3226	1.2903
77.5063	10.3226	1.2903
77.8172	14.0625	1.4823
78.1281	12.6563	1.4063
78.4390	11.2500	1.3258
78.7500	11.8750	1.3622
79.0609	10.9375	1.3073
79.3718	13.9063	1.4741
79.6827	11.8750	1.3622
79.9937	12.5000	1.3975
80.3046	11.4706	1.2988
80.6155	11.8571	1.3015
80.9264	10.8571	1.2454
81.2373	12.0000	1.3093
81.5483	13.4286	1.3851
81.8592	10.0000	1.1952
82.1701	13.0000	1.3628
82.4810	9.4286	1.1606
82.7919	11.3889	1.2577
83.1029	10.0000	1.1625
83.4138	12.7027	1.3102
83.7247	13.2432	1.3378
84.0356	11.6216	1.2532
84.3466	10.6757	1.2011
84.6575	9.3243	1.1225
84.9684	11.6216	1.2532
85.2793	13.9189	1.3715
85.5902	13.2051	1.3011
85.9012	15.6410	1.4161
86.2121	29.6154	1.9485
86.5230	26.1538	1.8311
86.8339	15.5128	1.4103
87.1448	12.9487	1.2884
87.4558	12.4359	1.2627
87.7667	11.7500	1.2119
88.0776	12.8750	1.2686
88.3885	13.2500	1.2870
88.6994	12.2500	1.2374
89.0104	8.6250	1.0383
89.3213	11.1250	1.1792
89.6322	10.3750	1.1388
89.9431	9.1250	1.0680
90.2541	10.2381	1.1040
90.5650	12.2619	1.2082
90.8759	11.3095	1.1603
91.1868	12.0238	1.1964
91.4977	9.2857	1.0514
91.8087	11.0714	1.1481
92.1196	10.5952	1.1231
92.4305	11.7778	1.1440
92.7414	10.7778	1.0943
93.0523	11.5556	1.1331
93.3633	10.6667	1.0887
93.6742	12.1111	1.1600
93.9851	10.2222	1.0657
94.2960	11.2222	1.1167
94.6070	10.7778	1.0943
94.9179	11.0638	1.0849
95.2288	10.2128	1.0423
95.5397	12.5532	1.1556
95.8506	10.4255	1.0531
96.1616	11.7021	1.1158
96.4725	11.1702	1.0901
96.7834	10.4255	1.0531
97.0943	13.5106	1.1989
97.4052	9.6939	0.9946
97.7162	12.1429	1.1131
98.0271	14.0816	1.1987
98.3380	14.2857	1.2074
98.6489	12.5510	1.1317
98.9598	12.3469	1.1224
99.2708	16.5306	1.2988
99.5817	35.4082	1.9008
99.8926	42.2000	2.0543
100.2035	28.4000	1.6852
100.5145	16.3000	1.2767
100.8254	15.2000	1.2329
101.1363	14.0000	1.1832
101.4472	14.1000	1.1874
101.7581	12.7000	1.1269
102.0691	17.2000	1.3115
102.3800	13.2000	1.1489
102.6909	12.7885	1.1089
103.0018	12.8846	1.1131
103.3127	12.3077	1.0879
103.6237	13.0769	1.1213
103.9346	13.8462	1.1538
104.2455	14.2308	1.1698
104.5564	12.3077	1.0879
104.8674	12.8846	1.1131
105.1783	12.6923	1.1047
105.4892	9.4444	0.9351
105.8001	9.6364	0.9360
106.1110	10.6364	0.9833
106.4220	12.0000	1.0445
106.7329	12.5455	1.0679
107.0438	13.6364	1.1134
107.3547	12.0909	1.0484
107.6656	12.7273	1.0757
107.9766	11.3636	1.0164
108.2875	12.8182	1.0795
108.5984	14.1228	1.1130
108.9093	13.9423	1.1578
109.2202	12.0213	1.1309
109.5312	11.9048	1.1905
109.8421	14.1667	1.4027
109.9834	12.2059	1.3398