File: XRD/Homogenization/4_WTaV_HIP1800C_8h_txt.txt
1.544427
20.2968	38.1111	2.0578
20.6077	37.2222	2.0337
20.9186	36.1053	1.9495
21.2296	35.8947	1.9438
21.5405	38.4000	1.9596
21.8514	34.4000	1.8547
22.1623	33.5000	1.8303
22.4732	33.2000	1.8221
22.7842	34.4000	1.8547
23.0951	36.2000	1.9026
23.4060	34.0000	1.8439
23.7169	27.5000	1.6583
24.0278	30.1000	1.7349
24.3388	28.7000	1.6941
24.6497	26.1000	1.6155
24.9606	29.2000	1.7088
25.2715	29.7143	1.6822
25.5824	27.6190	1.6218
25.8934	27.7273	1.5877
26.2043	24.8182	1.5021
26.5152	26.8182	1.5614
26.8261	24.7273	1.4993
27.1371	22.2727	1.4230
27.4480	26.6364	1.5561
27.7589	25.0909	1.5103
28.0698	23.2727	1.4545
28.3807	20.9091	1.3787
28.6917	22.0909	1.4171
29.0026	23.4545	1.4602
29.3135	21.6364	1.4025
29.6244	21.9130	1.3804
29.9353	23.0435	1.4155
30.2463	19.3333	1.2693
30.5572	20.4167	1.3044
30.8681	19.6667	1.2802
31.1790	20.0000	1.2910
31.4900	20.7500	1.3150
31.8009	19.0833	1.2611
32.1118	20.5000	1.3070
32.4227	20.1667	1.2964
32.7336	18.5000	1.2416
33.0446	18.3333	1.2360
33.3555	15.6667	1.1426
33.6664	16.6667	1.1785
33.9773	17.9200	1.1973
34.2882	15.5200	1.1143
34.5992	19.1538	1.2138
34.9101	27.2308	1.4473
35.2210	15.8462	1.1041
35.5319	17.0000	1.1435
35.8428	16.1538	1.1147
36.1538	17.4615	1.1590
36.4647	14.4615	1.0547
36.7756	13.7692	1.0292
37.0865	14.5385	1.0575
37.3975	14.7692	1.0659
37.7084	13.8462	1.0320
38.0193	18.3077	1.1867
38.3302	16.1481	1.0937
38.6411	15.3333	1.0657
38.9521	16.0000	1.0887
39.2630	23.3571	1.2917
39.5739	44.0000	1.7728
39.8848	122.9286	2.9632
40.1957	178.5714	3.5714
40.5067	44.9286	1.7914
40.8176	19.5714	1.1824
41.1285	16.1429	1.0738
41.4394	12.2143	0.9340
41.7504	13.0714	0.9663
42.0613	13.4286	0.9794
42.3722	14.1429	1.0051
42.6831	13.1724	0.9531
42.9940	11.5862	0.8939
43.3050	10.8966	0.8669
43.6159	10.7333	0.8459
43.9268	11.0667	0.8589
44.2377	10.3333	0.8300
44.5486	9.8667	0.8110
44.8596	10.4667	0.8353
45.1705	10.7333	0.8459
45.4814	8.9333	0.7717
45.7923	9.5333	0.7972
46.1032	9.6667	0.8028
46.4142	9.3333	0.7888
46.7251	11.4839	0.8608
47.0360	8.4516	0.7384
47.3469	7.5484	0.6978
47.6579	10.0000	0.7906
47.9688	11.2500	0.8385
48.2797	9.3125	0.7629
48.5906	9.3125	0.7629
48.9015	7.9375	0.7043
49.2125	10.0000	0.7906
49.5234	9.3125	0.7629
49.8343	8.6250	0.7342
50.1452	8.4375	0.7262
50.4561	7.7500	0.6960
50.7671	7.3333	0.6667
51.0780	7.8182	0.6884
51.3889	9.1515	0.7447
51.6998	7.2353	0.6524
52.0107	8.0000	0.6860
52.3217	9.5882	0.7510
52.6326	13.3529	0.8863
52.9435	8.7647	0.7180
53.2544	8.1765	0.6935
53.5654	6.5294	0.6197
53.8763	7.2941	0.6550
54.1872	7.8235	0.6784
54.4981	7.0000	0.6417
54.8090	8.7429	0.7068
55.1200	8.6857	0.7045
55.4309	6.5143	0.6101
55.7418	7.2222	0.6334
56.0527	6.8889	0.6186
56.3636	7.6111	0.6503
56.6746	7.8889	0.6620
56.9855	10.0556	0.7474
57.2964	14.6111	0.9010
57.6073	21.1111	1.0830
57.9183	31.4444	1.3217
58.2292	26.0000	1.2019
58.5401	11.6216	0.7926
58.8510	8.9730	0.6964
59.1619	9.0270	0.6985
59.4729	7.8919	0.6531
59.7838	7.1053	0.6115
60.0947	7.7368	0.6381
60.4056	8.5789	0.6720
60.7165	6.7368	0.5955
61.0275	6.6316	0.5908
61.3384	6.9474	0.6047
61.6493	6.2632	0.5741
61.9602	7.3158	0.6205
62.2711	7.9474	0.6467
62.5821	6.9744	0.5980
62.8930	7.4359	0.6175
63.2039	6.4103	0.5734
63.5148	6.4103	0.5734
63.8258	6.2439	0.5519
64.1367	6.4390	0.5604
64.4476	7.9024	0.6209
64.7585	6.4390	0.5604
65.0694	6.5581	0.5523
65.3804	7.3023	0.5828
65.6913	7.0233	0.5715
66.0022	5.5455	0.5021
66.3131	6.0000	0.5164
66.6240	8.1333	0.6012
66.9350	7.9556	0.5946
67.2459	9.4043	0.6326
67.5568	5.5319	0.4852
67.8677	6.7660	0.5366
68.1787	6.3830	0.5212
68.4896	5.8776	0.4898
68.8005	6.7755	0.5259
69.1114	5.7959	0.4864
69.4223	6.8163	0.5275
69.7333	6.0784	0.4882
70.0442	6.2745	0.4960
70.3551	7.6471	0.5476
70.6660	7.1154	0.5231
70.9769	7.8868	0.5455
71.2879	8.3019	0.5597
71.5988	11.0943	0.6470
71.9097	14.1481	0.7239
72.2206	20.9455	0.8727
72.5315	28.8000	1.0234
72.8425	45.8545	1.2913
73.1534	35.0357	1.1186
73.4643	16.5965	0.7631
73.7752	9.6140	0.5808
74.0862	8.4912	0.5458
74.3971	7.5172	0.5091
74.7080	7.1186	0.4912
75.0189	7.4237	0.5016
75.3298	6.9153	0.4842
75.6408	6.6333	0.4702
75.9517	6.2623	0.4531
76.2626	6.1311	0.4484
76.5735	7.2581	0.4839
76.8844	6.9677	0.4741
77.1954	7.0794	0.4741
77.5063	6.4762	0.4534
77.8172	6.6875	0.4571
78.1281	7.0938	0.4708
78.4390	6.0615	0.4319
78.7500	6.3077	0.4405
79.0609	6.9394	0.4586
79.3718	7.0606	0.4626
79.6827	5.9701	0.4222
79.9937	7.1343	0.4615
80.3046	7.0882	0.4566
80.6155	7.3235	0.4641
80.9264	6.7826	0.4434
81.2373	6.1429	0.4189
81.5483	6.9429	0.4454
81.8592	6.5714	0.4333
82.1701	6.9296	0.4418
82.4810	7.5000	0.4564
82.7919	7.5278	0.4573
83.1029	6.2222	0.4157
83.4138	8.0548	0.4698
83.7247	8.2432	0.4720
84.0356	6.7027	0.4256
84.3466	7.7568	0.4579
84.6575	8.0800	0.4642
84.9684	8.3421	0.4685
85.2793	8.7105	0.4788
85.5902	9.5263	0.5007
85.9012	12.2051	0.5594
86.2121	14.0769	0.6008
86.5230	21.1538	0.7365
86.8339	22.4103	0.7580
87.1448	13.6250	0.5836
87.4558	10.1250	0.5031
87.7667	10.1250	0.5031
88.0776	10.7750	0.5190
88.3885	9.4878	0.4811
88.6994	8.9756	0.4679
89.0104	9.6098	0.4841
89.3213	10.0000	0.4939
89.6322	9.5476	0.4768
89.9431	10.6429	0.5034
90.2541	10.6190	0.5028
90.5650	10.5000	0.5000
90.8759	10.1860	0.4867
91.1868	11.5349	0.5179
91.4977	10.9302	0.5042
91.8087	12.3864	0.5306
92.1196	12.3864	0.5306
92.4305	12.6591	0.5364
92.7414	12.0455	0.5232
93.0523	12.4444	0.5259
93.3633	12.0000	0.5164
93.6742	11.8667	0.5135
93.9851	12.7778	0.5329
94.2960	11.6522	0.5033
94.6070	13.0870	0.5334
94.9179	12.6739	0.5249
95.2288	12.3043	0.5172
95.5397	13.8298	0.5424
95.8506	12.5532	0.5168
96.1616	13.3404	0.5328
96.4725	14.0632	0.5441
96.7834	14.3542	0.5469
97.0943	15.2500	0.5637
97.4052	14.1667	0.5433
97.7162	14.1031	0.5392
98.0271	13.9388	0.5334
98.3380	15.5102	0.5626
98.6489	15.6735	0.5656
98.9598	16.4286	0.5790
99.2708	20.0800	0.6337
99.5817	21.6800	0.6585
99.8926	28.7000	0.7576
100.2035	31.0200	0.7877
100.5145	27.1373	0.7295
100.8254	21.0000	0.6417
101.1363	19.3725	0.6163
101.4472	15.9216	0.5587
101.7581	15.2157	0.5462
102.0691	14.8077	0.5336
102.3800	15.1154	0.5391
102.6909	14.2885	0.5242
103.0018	14.6731	0.5312
103.3127	14.9143	0.5330
103.6237	15.0377	0.5327
103.9346	14.7358	0.5273
104.2455	14.8491	0.5293
104.5564	15.3208	0.5377
104.8674	13.8333	0.5061
105.1783	14.4630	0.5175
105.4892	14.6852	0.5215
105.8001	13.9815	0.5088
106.1110	13.9083	0.5052
106.4220	14.0909	0.5062
106.7329	14.2182	0.5084
107.0438	13.8545	0.5019
107.3547	14.8000	0.5187
107.6656	15.2252	0.5238
107.9766	14.5893	0.5104
108.2875	15.0536	0.5185
108.5984	14.8214	0.5145
108.9093	14.3462	0.5253
109.2202	14.9149	0.5633
109.5312	14.5542	0.5922
109.8421	14.8611	0.6425
109.9834	14.9254	0.6675