File: XRD/Homogenization/7_W0.35Ta0.40Cr0.25_SPS_HT1800C_8h_txt.txt
1.540593
20.2968	73.3333	3.4960
20.6077	73.5484	3.4442
20.9186	65.1613	3.2419
21.2296	70.0000	3.3601
21.5405	66.5625	3.2250
21.8514	61.8750	3.1093
22.1623	60.6250	3.0778
22.4732	61.8750	3.1093
22.7842	63.2813	3.1445
23.0951	53.5294	2.8057
23.4060	56.0000	2.8284
23.7169	51.2857	2.7068
24.0278	52.8571	2.7479
24.3388	55.6944	2.7812
24.6497	51.7568	2.6446
24.9606	47.9730	2.5461
25.2715	51.4865	2.6377
25.5824	45.2703	2.4734
25.8934	44.5946	2.4549
26.2043	46.6667	2.4460
26.5152	46.6667	2.4460
26.8261	44.7436	2.3951
27.1371	40.7500	2.2569
27.4480	45.7500	2.3914
27.7589	45.7500	2.3914
28.0698	46.6250	2.4142
28.3807	42.1250	2.2947
28.6917	40.3571	2.1919
29.0026	41.4286	2.2208
29.3135	36.9048	2.0960
29.6244	35.9524	2.0688
29.9353	36.2500	2.0296
30.2463	38.0000	2.0548
30.5572	35.7778	1.9938
30.8681	33.7778	1.9373
31.1790	36.0000	2.0000
31.4900	33.0851	1.8761
31.8009	33.9362	1.9001
32.1118	32.3404	1.8549
32.4227	29.7872	1.7801
32.7336	27.2449	1.6674
33.0446	30.1020	1.7526
33.3555	31.6327	1.7966
33.6664	28.4694	1.7044
33.9773	27.2449	1.6674
34.2882	26.8000	1.6371
34.5992	26.8000	1.6371
34.9101	26.7000	1.6340
35.2210	27.3000	1.6523
35.5319	28.8462	1.6654
35.8428	25.9615	1.5800
36.1538	26.7308	1.6032
36.4647	25.8654	1.5770
36.7756	25.1852	1.5271
37.0865	23.1818	1.4517
37.3975	22.6364	1.4345
37.7084	24.8182	1.5021
38.0193	24.5455	1.4938
38.3302	29.7368	1.6151
38.6411	32.1053	1.6782
38.9521	40.7018	1.8895
39.2630	71.3158	2.5012
39.5739	232.1053	4.5122
39.8848	319.5763	5.2041
40.1957	81.0169	2.6203
40.5067	38.8136	1.8136
40.8176	27.9167	1.5253
41.1285	27.5833	1.5161
41.4394	23.5000	1.3994
41.7504	23.9167	1.4118
42.0613	18.5833	1.2444
42.3722	20.1613	1.2751
42.6831	21.1290	1.3054
42.9940	20.4839	1.2853
43.3050	22.0161	1.3325
43.6159	22.7419	1.3543
43.9268	17.3438	1.1640
44.2377	19.1406	1.2228
44.5486	19.6875	1.2402
44.8596	18.7500	1.2103
45.1705	18.6719	1.2078
45.4814	19.5313	1.2353
45.7923	18.5938	1.2053
46.1032	17.7344	1.1771
46.4142	17.2656	1.1614
46.7251	16.3281	1.1294
47.0360	16.1719	1.1240
47.3469	17.6563	1.1745
47.6579	17.8125	1.1797
47.9688	17.0313	1.1535
48.2797	18.4375	1.2002
48.5906	17.3438	1.1640
48.9015	14.0625	1.0482
49.2125	18.6719	1.2078
49.5234	17.5000	1.1693
49.8343	16.4844	1.1348
50.1452	17.5781	1.1719
50.4561	15.5469	1.1021
50.7671	17.0313	1.1535
51.0780	16.4844	1.1348
51.3889	16.0156	1.1186
51.6998	14.0625	1.0482
52.0107	18.8281	1.2128
52.3217	16.8750	1.1482
52.6326	16.8750	1.1482
52.9435	17.7344	1.1771
53.2544	15.6250	1.1049
53.5654	15.1563	1.0882
53.8763	15.4688	1.0993
54.1872	15.7813	1.1104
54.4981	16.9531	1.1509
54.8090	13.3594	1.0216
55.1200	17.8906	1.1822
55.4309	16.3281	1.1294
55.7418	19.2969	1.2278
56.0527	17.4219	1.1667
56.3636	20.2344	1.2573
56.6746	24.6094	1.3866
56.9855	42.4219	1.8205
57.2964	79.2188	2.4878
57.6073	103.6719	2.8459
57.9183	41.1719	1.7935
58.2292	24.7656	1.3910
58.5401	20.0000	1.2500
58.8510	17.8906	1.1822
59.1619	15.8594	1.1131
59.4729	17.5000	1.1693
59.7838	15.2344	1.0910
60.0947	17.1875	1.1588
60.4056	17.1094	1.1561
60.7165	17.2656	1.1614
61.0275	16.9531	1.1509
61.3384	17.8125	1.1797
61.6493	17.1875	1.1588
61.9602	14.2969	1.0569
62.2711	18.1250	1.1900
62.5821	16.0938	1.1213
62.8930	15.8594	1.1131
63.2039	15.8594	1.1131
63.5148	14.9231	1.0714
63.8258	15.5385	1.0933
64.1367	15.4615	1.0906
64.4476	17.0000	1.1435
64.7585	17.6923	1.1666
65.0694	16.5672	1.1119
65.3804	14.6269	1.0448
65.6913	15.5882	1.0706
66.0022	15.2941	1.0605
66.3131	16.1594	1.0821
66.6240	14.5000	1.0177
66.9350	14.7857	1.0277
67.2459	16.1429	1.0738
67.5568	13.8571	0.9949
67.8677	16.8750	1.0825
68.1787	16.5972	1.0736
68.4896	14.2361	0.9943
68.8005	14.7973	0.9999
69.1114	17.4324	1.0853
69.4223	16.1486	1.0446
69.7333	16.4000	1.0456
70.0442	19.4667	1.1392
70.3551	20.2000	1.1605
70.6660	21.3333	1.1926
70.9769	23.2692	1.2213
71.2879	33.3974	1.4632
71.5988	54.6795	1.8722
71.9097	94.0385	2.4552
72.2206	164.3750	3.2052
72.5315	107.3750	2.5905
72.8425	46.8125	1.7105
73.1534	29.3210	1.3453
73.4643	23.0864	1.1938
73.7752	21.7901	1.1598
74.0862	18.8272	1.0780
74.3971	18.7500	1.0564
74.7080	18.9881	1.0631
75.0189	17.9762	1.0344
75.3298	16.8235	0.9948
75.6408	17.1176	1.0035
75.9517	18.5294	1.0440
76.2626	17.2353	1.0069
76.5735	16.1047	0.9676
76.8844	15.5114	0.9388
77.1954	16.8750	0.9792
77.5063	16.8539	0.9731
77.8172	15.3889	0.9246
78.1281	17.1111	0.9750
78.4390	16.5556	0.9590
78.7500	16.1667	0.9477
79.0609	16.5385	0.9533
79.3718	16.5385	0.9533
79.6827	16.2366	0.9343
79.9937	15.9140	0.9250
80.3046	16.4362	0.9350
80.6155	16.2234	0.9289
80.9264	16.1053	0.9207
81.2373	15.7895	0.9116
81.5483	17.0526	0.9474
81.8592	17.6042	0.9575
82.1701	17.3958	0.9519
82.4810	16.3265	0.9127
82.7919	17.6531	0.9490
83.1029	16.6667	0.9175
83.4138	17.8788	0.9502
83.7247	17.4000	0.9327
84.0356	17.9000	0.9460
84.3466	19.4000	0.9849
84.6575	21.0396	1.0206
84.9684	22.5248	1.0560
85.2793	31.3107	1.2329
85.5902	45.4854	1.4859
85.9012	56.3462	1.6459
86.2121	38.9904	1.3691
86.5230	25.6190	1.1045
86.8339	20.6190	0.9909
87.1448	18.4762	0.9380
87.4558	19.1509	0.9504
87.7667	19.5755	0.9609
88.0776	17.7830	0.9159
88.3885	16.3426	0.8698
88.6994	17.2018	0.8883
89.0104	16.8807	0.8800
89.3213	19.0000	0.9293
89.6322	17.7273	0.8977
89.9431	17.9091	0.9022
90.2541	18.3182	0.9125
90.5650	17.1622	0.8792
90.8759	17.7876	0.8872
91.1868	15.9735	0.8407
91.4977	17.6991	0.8850
91.8087	19.3043	0.9161
92.1196	16.9565	0.8586
92.4305	19.8261	0.9284
92.7414	19.4348	0.9192
93.0523	19.3534	0.9133
93.3633	20.1724	0.9325
93.6742	17.7155	0.8738
93.9851	18.9076	0.8913
94.2960	20.2941	0.9234
94.6070	19.0756	0.8953
94.9179	20.5042	0.9282
95.2288	19.3750	0.8985
95.5397	21.7083	0.9511
95.8506	21.7917	0.9529
96.1616	21.8182	0.9495
96.4725	22.8049	0.9628
96.7834	23.5366	0.9781
97.0943	23.5366	0.9781
97.4052	24.4800	0.9895
97.7162	28.5200	1.0681
98.0271	36.2000	1.2033
98.3380	41.0714	1.2766
98.6489	52.3047	1.4294
98.9598	72.3643	1.6748
99.2708	79.3411	1.7536
99.5817	58.8462	1.5044
99.8926	38.3588	1.2100
100.2035	28.6641	1.0460
100.5145	25.8647	0.9861
100.8254	24.7015	0.9601
101.1363	24.6667	0.9558
101.4472	24.7059	0.9531
101.7581	24.5956	0.9509
102.0691	25.4317	0.9565
102.3800	24.6043	0.9408
102.6909	22.9433	0.9020
103.0018	23.7589	0.9179
103.3127	24.7552	0.9304
103.6237	24.6181	0.9246
103.9346	24.6897	0.9227
104.2455	24.5548	0.9170
104.5564	24.3151	0.9125
104.8674	23.7500	0.8957
105.1783	24.9329	0.9147
105.4892	23.2667	0.8807
105.8001	24.7020	0.9044
106.1110	25.4967	0.9188
106.4220	25.2273	0.9050
106.7329	25.2581	0.9026
107.0438	24.6474	0.8888
107.3547	26.5705	0.9228
107.6656	25.7911	0.9034
107.9766	26.3750	0.9079
108.2875	25.9150	0.9203
108.5984	26.1189	0.9556
108.9093	25.4198	0.9850
109.2202	29.0083	1.0948
109.5312	27.1818	1.1115
109.8421	26.5000	1.1511
109.9834	26.5263	1.1816