File: XRD/Homogenization/7_W0.35Ta0.40Cr0.25_HIP1800C_8h.xye
1.544427
20.2968	37.8889	2.0518
20.6077	35.4444	1.9845
20.9186	39.1579	2.0302
21.2296	38.8421	2.0220
21.5405	34.2000	1.8493
21.8514	35.9000	1.8947
22.1623	34.0000	1.8439
22.4732	34.0000	1.8439
22.7842	34.6000	1.8601
23.0951	30.1000	1.7349
23.4060	29.4000	1.7146
23.7169	29.7000	1.7234
24.0278	28.0000	1.6733
24.3388	27.1000	1.6462
24.6497	27.8000	1.6673
24.9606	26.6000	1.6310
25.2715	25.5238	1.5591
25.5824	25.2381	1.5504
25.8934	25.0000	1.5076
26.2043	24.0000	1.4771
26.5152	24.6364	1.4966
26.8261	23.0909	1.4489
27.1371	25.6364	1.5266
27.4480	19.8182	1.3423
27.7589	23.8182	1.4715
28.0698	21.7273	1.4054
28.3807	19.3636	1.3268
28.6917	22.9091	1.4431
29.0026	22.6364	1.4345
29.3135	20.0000	1.3484
29.6244	20.2609	1.3273
29.9353	19.0435	1.2868
30.2463	19.8333	1.2856
30.5572	20.8333	1.3176
30.8681	16.6667	1.1785
31.1790	17.2500	1.1990
31.4900	16.8333	1.1844
31.8009	17.5833	1.2105
32.1118	17.7500	1.2162
32.4227	19.0000	1.2583
32.7336	15.9167	1.1517
33.0446	16.7500	1.1815
33.3555	16.6667	1.1785
33.6664	15.8333	1.1487
33.9773	18.3200	1.2106
34.2882	17.1200	1.1703
34.5992	14.7692	1.0659
34.9101	14.3077	1.0491
35.2210	13.5385	1.0205
35.5319	14.0000	1.0377
35.8428	16.6923	1.1331
36.1538	20.2308	1.2475
36.4647	17.6154	1.1641
36.7756	14.9231	1.0714
37.0865	14.0769	1.0406
37.3975	15.6923	1.0987
37.7084	12.6923	0.9881
38.0193	15.0000	1.0742
38.3302	16.8889	1.1185
38.6411	22.5926	1.2936
38.9521	27.6296	1.4306
39.2630	70.4286	2.2429
39.5739	147.7143	3.2482
39.8848	209.2143	3.8657
40.1957	46.4286	1.8211
40.5067	21.0714	1.2268
40.8176	17.5000	1.1180
41.1285	14.9286	1.0326
41.4394	12.0000	0.9258
41.7504	12.0714	0.9286
42.0613	14.0714	1.0025
42.3722	16.1429	1.0738
42.6831	31.6552	1.4775
42.9940	12.3448	0.9227
43.3050	12.1379	0.9149
43.6159	16.3333	1.0435
43.9268	10.6000	0.8406
44.2377	12.4667	0.9117
44.5486	11.4667	0.8743
44.8596	9.8000	0.8083
45.1705	9.2667	0.7860
45.4814	9.4667	0.7944
45.7923	11.0000	0.8563
46.1032	9.0000	0.7746
46.4142	9.7333	0.8055
46.7251	9.0968	0.7661
47.0360	9.4194	0.7796
47.3469	9.0323	0.7634
47.6579	8.5625	0.7315
47.9688	9.8750	0.7856
48.2797	9.1250	0.7552
48.5906	8.8750	0.7448
48.9015	8.3125	0.7208
49.2125	7.4375	0.6818
49.5234	7.8750	0.7016
49.8343	8.8125	0.7421
50.1452	9.0000	0.7500
50.4561	8.4375	0.7262
50.7671	7.6970	0.6830
51.0780	6.6667	0.6356
51.3889	8.0606	0.6989
51.6998	7.4706	0.6629
52.0107	8.1765	0.6935
52.3217	8.0000	0.6860
52.6326	7.7647	0.6758
52.9435	7.5294	0.6655
53.2544	7.1176	0.6471
53.5654	6.8235	0.6335
53.8763	7.5294	0.6655
54.1872	8.0000	0.6860
54.4981	6.5294	0.6197
54.8090	7.6000	0.6590
55.1200	8.7429	0.7068
55.4309	9.2000	0.7251
55.7418	8.9444	0.7049
56.0527	9.2778	0.7179
56.3636	10.7222	0.7718
56.6746	10.1667	0.7515
56.9855	14.5556	0.8992
57.2964	21.6111	1.0957
57.6073	29.2778	1.2754
57.9183	16.7778	0.9655
58.2292	9.8333	0.7391
58.5401	8.7568	0.6880
58.8510	8.1622	0.6642
59.1619	8.5946	0.6816
59.4729	8.1081	0.6620
59.7838	7.8421	0.6425
60.0947	7.1053	0.6115
60.4056	9.2632	0.6982
60.7165	8.7368	0.6781
61.0275	9.8947	0.7216
61.3384	7.0526	0.6093
61.6493	7.5789	0.6316
61.9602	7.6842	0.6359
62.2711	6.5789	0.5884
62.5821	6.6154	0.5825
62.8930	8.4103	0.6567
63.2039	8.0000	0.6405
63.5148	6.9231	0.5958
63.8258	8.2927	0.6360
64.1367	6.3415	0.5562
64.4476	7.5122	0.6053
64.7585	8.0488	0.6266
65.0694	8.1395	0.6153
65.3804	8.0000	0.6100
65.6913	8.2326	0.6188
66.0022	6.9545	0.5622
66.3131	6.6222	0.5425
66.6240	7.1556	0.5639
66.9350	8.3556	0.6094
67.2459	10.8085	0.6782
67.5568	10.5532	0.6701
67.8677	7.9149	0.5803
68.1787	8.3404	0.5957
68.4896	7.5102	0.5537
68.8005	8.4490	0.5872
69.1114	8.2041	0.5787
69.4223	9.5102	0.6230
69.7333	9.2157	0.6012
70.0442	8.7059	0.5843
70.3551	8.8627	0.5895
70.6660	10.1538	0.6249
70.9769	11.0566	0.6459
71.2879	13.2075	0.7060
71.5988	20.9057	0.8882
71.9097	34.2222	1.1258
72.2206	48.2545	1.3247
72.5315	48.1818	1.3237
72.8425	23.6727	0.9278
73.1534	15.0357	0.7328
73.4643	9.7544	0.5850
73.7752	8.1404	0.5344
74.0862	8.0000	0.5298
74.3971	7.7241	0.5161
74.7080	8.2373	0.5284
75.0189	7.6949	0.5107
75.3298	8.1017	0.5241
75.6408	7.6000	0.5033
75.9517	7.7705	0.5047
76.2626	7.8033	0.5058
76.5735	7.8710	0.5039
76.8844	8.7097	0.5301
77.1954	8.3810	0.5158
77.5063	7.7460	0.4959
77.8172	7.7813	0.4931
78.1281	6.9063	0.4646
78.4390	7.6615	0.4855
78.7500	7.5385	0.4816
79.0609	8.9091	0.5196
79.3718	8.3333	0.5025
79.6827	8.0000	0.4887
79.9937	8.1194	0.4923
80.3046	8.4118	0.4974
80.6155	8.7647	0.5077
80.9264	8.2029	0.4876
81.2373	7.5143	0.4634
81.5483	7.4571	0.4616
81.8592	7.9429	0.4764
82.1701	7.9718	0.4739
82.4810	8.3056	0.4803
82.7919	8.1944	0.4771
83.1029	8.1389	0.4755
83.4138	9.1507	0.5007
83.7247	8.5946	0.4820
84.0356	10.2973	0.5275
84.3466	11.5135	0.5578
84.6575	12.0000	0.5657
84.9684	12.3684	0.5705
85.2793	14.7368	0.6227
85.5902	16.6842	0.6626
85.9012	18.2051	0.6832
86.2121	19.1795	0.7013
86.5230	13.3077	0.5841
86.8339	12.6410	0.5693
87.1448	11.2000	0.5292
87.4558	10.6500	0.5160
87.7667	11.1750	0.5286
88.0776	11.0500	0.5256
88.3885	11.0732	0.5197
88.6994	11.3171	0.5254
89.0104	11.4634	0.5288
89.3213	11.6341	0.5327
89.6322	11.7381	0.5287
89.9431	12.8810	0.5538
90.2541	13.2381	0.5614
90.5650	13.0238	0.5569
90.8759	13.1163	0.5523
91.1868	12.2326	0.5334
91.4977	14.2791	0.5763
91.8087	13.7955	0.5599
92.1196	13.1818	0.5473
92.4305	13.6136	0.5562
92.7414	14.7045	0.5781
93.0523	15.0000	0.5774
93.3633	13.5333	0.5484
93.6742	15.0222	0.5778
93.9851	14.7333	0.5722
94.2960	14.8261	0.5677
94.6070	14.9783	0.5706
94.9179	15.5652	0.5817
95.2288	16.3696	0.5965
95.5397	16.2553	0.5881
95.8506	14.7872	0.5609
96.1616	17.2553	0.6059
96.4725	16.8211	0.5951
96.7834	16.9375	0.5940
97.0943	16.7708	0.5911
97.4052	18.0625	0.6134
97.7162	18.0206	0.6096
98.0271	17.4694	0.5971
98.3380	21.7551	0.6663
98.6489	23.0000	0.6851
98.9598	23.6939	0.6954
99.2708	26.2600	0.7247
99.5817	25.0600	0.7080
99.8926	23.3000	0.6826
100.2035	19.9600	0.6318
100.5145	19.3529	0.6160
100.8254	18.6078	0.6040
101.1363	18.0392	0.5947
101.4472	17.9804	0.5938
101.7581	18.0980	0.5957
102.0691	18.7115	0.5999
102.3800	19.7308	0.6160
102.6909	19.4808	0.6121
103.0018	19.3269	0.6096
103.3127	18.0762	0.5868
103.6237	16.3774	0.5559
103.9346	18.1321	0.5849
104.2455	18.4717	0.5904
104.5564	18.3208	0.5879
104.8674	18.1667	0.5800
105.1783	17.9815	0.5771
105.4892	17.6852	0.5723
105.8001	18.9815	0.5929
106.1110	17.9450	0.5738
106.4220	18.8364	0.5852
106.7329	19.7455	0.5992
107.0438	18.6182	0.5818
107.3547	17.7273	0.5677
107.6656	19.0090	0.5852
107.9766	17.5893	0.5604
108.2875	18.8214	0.5797
108.5984	18.2143	0.5703
108.9093	18.9423	0.6036
109.2202	19.2766	0.6404
109.5312	19.4458	0.6845
109.8421	18.4167	0.7152
109.9834	18.5672	0.7445