File: XRD/Homogenization/9_W0.40Ta0.40Ti0.20_HIP1800C_8h_txt.txt
1.544427
20.2968	40.0000	2.1082
20.6077	40.0000	2.1082
20.9186	37.3684	1.9833
21.2296	40.0000	2.0520
21.5405	34.7000	1.8628
21.8514	34.7000	1.8628
22.1623	31.4000	1.7720
22.4732	34.7000	1.8628
22.7842	33.9000	1.8412
23.0951	31.0000	1.7607
23.4060	32.1000	1.7916
23.7169	32.5000	1.8028
24.0278	28.3000	1.6823
24.3388	31.3000	1.7692
24.6497	30.0000	1.7321
24.9606	25.6000	1.6000
25.2715	26.2857	1.5822
25.5824	26.4762	1.5879
25.8934	28.9091	1.6211
26.2043	26.7273	1.5588
26.5152	22.3636	1.4259
26.8261	26.4545	1.5508
27.1371	24.2727	1.4855
27.4480	22.2727	1.4230
27.7589	23.0909	1.4489
28.0698	22.6364	1.4345
28.3807	20.0000	1.3484
28.6917	22.1818	1.4200
29.0026	21.0000	1.3817
29.3135	21.0909	1.3847
29.6244	21.5652	1.3694
29.9353	19.6522	1.3072
30.2463	22.0833	1.3566
30.5572	20.0833	1.2937
30.8681	21.3333	1.3333
31.1790	18.1667	1.2304
31.4900	21.0833	1.3255
31.8009	21.4167	1.3359
32.1118	19.5833	1.2775
32.4227	19.9167	1.2883
32.7336	21.0000	1.3229
33.0446	15.0000	1.1180
33.3555	15.3333	1.1304
33.6664	18.1667	1.2304
33.9773	15.9200	1.1285
34.2882	16.5600	1.1510
34.5992	15.0000	1.0742
34.9101	16.6923	1.1331
35.2210	14.6923	1.0631
35.5319	16.6923	1.1331
35.8428	16.3846	1.1227
36.1538	14.6923	1.0631
36.4647	15.3077	1.0851
36.7756	13.6923	1.0263
37.0865	17.6154	1.1641
37.3975	15.9231	1.1067
37.7084	15.7692	1.1014
38.0193	18.0769	1.1792
38.3302	21.6296	1.2658
38.6411	26.7407	1.4074
38.9521	63.7037	2.1723
39.2630	239.4286	4.1355
39.5739	245.2857	4.1857
39.8848	53.6429	1.9575
40.1957	24.7857	1.3306
40.5067	19.7143	1.1867
40.8176	15.7143	1.0595
41.1285	16.5714	1.0880
41.4394	15.5714	1.0546
41.7504	14.9286	1.0326
42.0613	13.2143	0.9715
42.3722	11.0714	0.8893
42.6831	12.6207	0.9329
42.9940	14.4828	0.9994
43.3050	13.0345	0.9481
43.6159	12.6667	0.9189
43.9268	12.6000	0.9165
44.2377	11.5333	0.8769
44.5486	12.0000	0.8944
44.8596	12.2000	0.9018
45.1705	10.6667	0.8433
45.4814	11.5333	0.8769
45.7923	11.2000	0.8641
46.1032	13.2667	0.9404
46.4142	12.7333	0.9214
46.7251	10.3226	0.8161
47.0360	11.4839	0.8608
47.3469	10.8387	0.8362
47.6579	10.0000	0.7906
47.9688	10.2500	0.8004
48.2797	12.5000	0.8839
48.5906	10.3750	0.8053
48.9015	10.1875	0.7979
49.2125	9.1875	0.7578
49.5234	11.7500	0.8570
49.8343	10.4375	0.8077
50.1452	8.5000	0.7289
50.4561	10.5000	0.8101
50.7671	8.6061	0.7222
51.0780	9.5758	0.7618
51.3889	10.3636	0.7925
51.6998	9.9412	0.7647
52.0107	9.5294	0.7487
52.3217	9.8235	0.7602
52.6326	9.9412	0.7647
52.9435	9.7059	0.7556
53.2544	10.2941	0.7782
53.5654	9.6471	0.7533
53.8763	10.3529	0.7804
54.1872	8.2353	0.6960
54.4981	9.1765	0.7347
54.8090	10.1714	0.7624
55.1200	10.5714	0.7772
55.4309	10.2286	0.7645
55.7418	10.2778	0.7556
56.0527	14.6111	0.9010
56.3636	17.7222	0.9923
56.6746	40.3333	1.4969
56.9855	61.0000	1.8409
57.2964	36.3333	1.4207
57.6073	14.6667	0.9027
57.9183	11.5000	0.7993
58.2292	12.0556	0.8184
58.5401	9.8919	0.7312
58.8510	10.2162	0.7431
59.1619	8.9730	0.6964
59.4729	9.5676	0.7191
59.7838	10.4211	0.7406
60.0947	11.8947	0.7912
60.4056	10.6842	0.7499
60.7165	9.6842	0.7139
61.0275	10.0000	0.7255
61.3384	10.1053	0.7293
61.6493	8.9474	0.6862
61.9602	7.9474	0.6467
62.2711	8.5263	0.6699
62.5821	10.3077	0.7270
62.8930	9.6923	0.7050
63.2039	8.1026	0.6446
63.5148	8.7692	0.6706
63.8258	8.5854	0.6471
64.1367	8.7317	0.6526
64.4476	7.9024	0.6209
64.7585	8.1463	0.6304
65.0694	8.9767	0.6462
65.3804	8.5581	0.6309
65.6913	8.4651	0.6275
66.0022	9.7727	0.6665
66.3131	10.1333	0.6711
66.6240	7.8222	0.5896
66.9350	8.6667	0.6206
67.2459	9.2766	0.6283
67.5568	9.4043	0.6326
67.8677	9.1064	0.6225
68.1787	9.4468	0.6340
68.4896	10.5714	0.6569
68.8005	10.1633	0.6441
69.1114	11.3469	0.6805
69.4223	10.2041	0.6454
69.7333	11.0980	0.6597
70.0442	11.0980	0.6597
70.3551	12.0392	0.6871
70.6660	17.5385	0.8213
70.9769	29.5849	1.0566
71.2879	64.8679	1.5646
71.5988	82.7547	1.7672
71.9097	40.0741	1.2183
72.2206	17.8909	0.8066
72.5315	12.8364	0.6832
72.8425	11.3455	0.6423
73.1534	12.0714	0.6566
73.4643	10.4912	0.6067
73.7752	10.6316	0.6108
74.0862	10.3158	0.6016
74.3971	9.6897	0.5780
74.7080	9.9661	0.5812
75.0189	10.2373	0.5891
75.3298	9.9661	0.5812
75.6408	11.1333	0.6092
75.9517	9.8689	0.5688
76.2626	10.5574	0.5883
76.5735	10.0323	0.5689
76.8844	9.2903	0.5474
77.1954	8.8254	0.5293
77.5063	10.0000	0.5634
77.8172	9.3438	0.5404
78.1281	9.1875	0.5358
78.4390	10.0308	0.5556
78.7500	10.2462	0.5615
79.0609	9.8788	0.5471
79.3718	9.5455	0.5378
79.6827	9.8806	0.5431
79.9937	9.6716	0.5373
80.3046	10.0588	0.5439
80.6155	9.5588	0.5302
80.9264	9.5942	0.5273
81.2373	8.2000	0.4840
81.5483	9.6286	0.5245
81.8592	9.0286	0.5079
82.1701	10.0282	0.5315
82.4810	10.1111	0.5300
82.7919	9.3056	0.5084
83.1029	10.3333	0.5358
83.4138	11.1507	0.5527
83.7247	10.8919	0.5426
84.0356	12.0811	0.5714
84.3466	16.5946	0.6697
84.6575	23.5467	0.7924
84.9684	27.9211	0.8572
85.2793	20.8421	0.7406
85.5902	14.0789	0.6087
85.9012	11.3333	0.5391
86.2121	9.4615	0.4925
86.5230	10.5385	0.5198
86.8339	10.9231	0.5292
87.1448	11.1750	0.5286
87.4558	10.2500	0.5062
87.7667	11.4750	0.5356
88.0776	11.4750	0.5356
88.3885	11.2439	0.5237
88.6994	11.8293	0.5371
89.0104	11.3415	0.5259
89.3213	12.0488	0.5421
89.6322	11.0476	0.5129
89.9431	11.6190	0.5260
90.2541	11.6667	0.5270
90.5650	11.9048	0.5324
90.8759	12.0930	0.5303
91.1868	12.4186	0.5374
91.4977	12.8140	0.5459
91.8087	12.2727	0.5281
92.1196	12.9773	0.5431
92.4305	13.1136	0.5459
92.7414	12.8409	0.5402
93.0523	13.1556	0.5407
93.3633	13.6222	0.5502
93.6742	13.2000	0.5416
93.9851	14.9556	0.5765
94.2960	14.2609	0.5568
94.6070	14.7609	0.5665
94.9179	16.3043	0.5954
95.2288	15.5652	0.5817
95.5397	16.2553	0.5881
95.8506	16.0213	0.5838
96.1616	16.9362	0.6003
96.4725	18.3789	0.6220
96.7834	19.8333	0.6428
97.0943	22.7083	0.6878
97.4052	27.9375	0.7629
97.7162	35.5258	0.8559
98.0271	43.1837	0.9388
98.3380	35.2857	0.8486
98.6489	24.9592	0.7137
98.9598	19.7143	0.6343
99.2708	18.3000	0.6050
99.5817	16.8800	0.5810
99.8926	17.0400	0.5838
100.2035	17.6600	0.5943
100.5145	18.6863	0.6053
100.8254	17.5294	0.5863
101.1363	17.0196	0.5777
101.4472	17.3529	0.5833
101.7581	17.3922	0.5840
102.0691	16.7692	0.5679
102.3800	16.8269	0.5689
102.6909	18.0769	0.5896
103.0018	17.8654	0.5861
103.3127	16.9714	0.5686
103.6237	17.9811	0.5825
103.9346	17.1698	0.5692
104.2455	17.5094	0.5748
104.5564	17.7736	0.5791
104.8674	16.8519	0.5586
105.1783	17.6852	0.5723
105.4892	17.3333	0.5666
105.8001	17.1852	0.5641
106.1110	17.6697	0.5694
106.4220	17.4909	0.5639
106.7329	18.8182	0.5849
107.0438	17.6182	0.5660
107.3547	17.1455	0.5583
107.6656	17.3694	0.5594
107.9766	18.0357	0.5675
108.2875	18.1964	0.5700
108.5984	16.7321	0.5466
108.9093	17.4808	0.5798
109.2202	17.0426	0.6022
109.5312	18.4578	0.6669
109.8421	17.2500	0.6922
109.9834	17.4627	0.7220