File: XRD/Homogenization/9_W0.40Ta0.40Ti0.20_HIP1800C_10h_fast_cooling.xye
1.540593
20.2968	38.3333	3.2632
20.6077	36.9444	3.2035
20.9186	43.6111	3.4805
21.2296	32.7778	3.0174
21.5405	35.0000	2.9580
21.8514	35.5000	2.9791
22.1623	31.7500	2.8174
22.4732	30.2500	2.7500
22.7842	27.7500	2.6339
23.0951	29.7500	2.7272
23.4060	29.5000	2.7157
23.7169	31.2500	2.7951
24.0278	32.7500	2.8614
24.3388	25.7500	2.5372
24.6497	26.0000	2.5495
24.9606	20.2500	2.2500
25.2715	21.9048	2.2837
25.5824	24.2857	2.4046
25.8934	19.3182	2.0954
26.2043	23.4091	2.3066
26.5152	25.4545	2.4052
26.8261	25.0000	2.3837
27.1371	25.2273	2.3945
27.4480	22.2727	2.2499
27.7589	19.7727	2.1199
28.0698	22.7273	2.2727
28.3807	24.3182	2.3509
28.6917	19.5455	2.1076
29.0026	18.4091	2.0455
29.3135	16.5909	1.9418
29.6244	16.8182	1.9551
29.9353	19.3182	2.0954
30.2463	20.0000	2.0851
30.5572	19.1304	2.0393
30.8681	22.3913	2.2063
31.1790	19.5652	2.0624
31.4900	20.6522	2.1189
31.8009	16.5217	1.8952
32.1118	16.5217	1.8952
32.4227	15.6522	1.8446
32.7336	19.7826	2.0738
33.0446	14.5652	1.7794
33.3555	13.9130	1.7391
33.6664	15.6522	1.8446
33.9773	16.6000	1.8221
34.2882	14.0000	1.6733
34.5992	17.5000	1.8345
34.9101	14.2308	1.6543
35.2210	13.6538	1.6204
35.5319	10.7692	1.4391
35.8428	12.3077	1.5385
36.1538	13.6538	1.6204
36.4647	16.1538	1.7625
36.7756	15.1923	1.7093
37.0865	14.6154	1.6765
37.3975	14.6154	1.6765
37.7084	15.3846	1.7201
38.0193	14.2308	1.6543
38.3302	20.9259	1.9685
38.6411	20.7407	1.9598
38.9521	42.9630	2.8207
39.2630	132.7778	4.9587
39.5739	296.1111	7.4051
39.8848	81.6667	3.8889
40.1957	30.3704	2.3715
40.5067	20.3704	1.9422
40.8176	16.2963	1.7372
41.1285	17.2222	1.7859
41.4394	14.0741	1.6144
41.7504	14.2593	1.6250
42.0613	13.3333	1.5713
42.3722	13.7037	1.5930
42.6831	9.1071	1.2753
42.9940	14.6429	1.6170
43.3050	14.1071	1.5872
43.6159	11.0000	1.3540
43.9268	9.5000	1.2583
44.2377	12.6667	1.4530
44.5486	10.0000	1.2910
44.8596	10.8333	1.3437
45.1705	8.1667	1.1667
45.4814	10.0000	1.2910
45.7923	9.1667	1.2360
46.1032	13.0000	1.4720
46.4142	12.0000	1.4142
46.7251	9.6774	1.2493
47.0360	7.7419	1.1175
47.3469	10.4839	1.3004
47.6579	8.1250	1.1267
47.9688	10.4688	1.2790
48.2797	8.2813	1.1375
48.5906	8.4375	1.1482
48.9015	7.1875	1.0597
49.2125	8.9063	1.1797
49.5234	8.4375	1.1482
49.8343	10.6250	1.2885
50.1452	7.5000	1.0825
50.4561	9.2188	1.2002
50.7671	9.5313	1.2204
51.0780	9.2188	1.2002
51.3889	9.2188	1.2002
51.6998	8.0882	1.0906
52.0107	10.2941	1.2304
52.3217	7.6471	1.0605
52.6326	10.8824	1.2650
52.9435	7.7941	1.0706
53.2544	7.3529	1.0399
53.5654	9.5588	1.1856
53.8763	6.9118	1.0082
54.1872	7.5000	1.0502
54.4981	6.7647	0.9974
54.8090	9.2857	1.1518
55.1200	9.5714	1.1693
55.4309	8.8571	1.1249
55.7418	8.4722	1.0848
56.0527	10.6944	1.2187
56.3636	15.2778	1.4567
56.6746	28.4722	1.9886
56.9855	55.9722	2.7882
57.2964	36.1111	2.2395
57.6073	15.4167	1.4633
57.9183	10.6944	1.2187
58.2292	8.4722	1.0848
58.5401	7.7027	1.0202
58.8510	6.7568	0.9555
59.1619	6.8919	0.9651
59.4729	6.8919	0.9651
59.7838	6.4865	0.9362
60.0947	5.9459	0.8964
60.4056	6.8919	0.9651
60.7165	7.2973	0.9930
61.0275	5.9459	0.8964
61.3384	7.1622	0.9838
61.6493	7.8378	1.0292
61.9602	7.2973	0.9930
62.2711	6.7568	0.9555
62.5821	6.2821	0.8974
62.8930	6.1538	0.8882
63.2039	6.4103	0.9065
63.5148	6.1538	0.8882
63.8258	7.1250	0.9437
64.1367	6.5000	0.9014
64.4476	7.0000	0.9354
64.7585	7.0000	0.9354
65.0694	7.1429	0.9221
65.3804	7.2619	0.9298
65.6913	6.3095	0.8667
66.0022	6.1364	0.8351
66.3131	5.7778	0.8012
66.6240	6.8889	0.8749
66.9350	6.1111	0.8240
67.2459	5.6383	0.7745
67.5568	7.8723	0.9151
67.8677	4.8936	0.7215
68.1787	5.8511	0.7890
68.4896	7.1429	0.8537
68.8005	6.9388	0.8415
69.1114	6.4286	0.8099
69.4223	6.6327	0.8227
69.7333	8.8000	0.9381
70.0442	8.3000	0.9110
70.3551	8.4000	0.9165
70.6660	12.5000	1.0963
70.9769	21.5385	1.4391
71.2879	41.9231	2.0078
71.5988	76.7308	2.7162
71.9097	53.9815	2.2357
72.2206	32.0909	1.7080
72.5315	14.5455	1.1499
72.8425	7.3636	0.8182
73.1534	6.6364	0.7767
73.4643	7.8947	0.8322
73.7752	7.3684	0.8040
74.0862	5.9649	0.7234
74.3971	5.9649	0.7234
74.7080	5.9322	0.7090
75.0189	6.1017	0.7191
75.3298	7.3729	0.7905
75.6408	7.1667	0.7728
75.9517	6.6667	0.7454
76.2626	6.1667	0.7169
76.5735	5.4839	0.6650
76.8844	4.5968	0.6089
77.1954	5.4839	0.6650
77.5063	6.8548	0.7435
77.8172	5.4688	0.6536
78.1281	5.4688	0.6536
78.4390	7.2308	0.7458
78.7500	4.6154	0.5958
79.0609	7.0000	0.7338
79.3718	5.6154	0.6572
79.6827	5.0746	0.6154
79.9937	5.9701	0.6675
80.3046	5.6618	0.6452
80.6155	6.3971	0.6858
80.9264	6.2319	0.6720
81.2373	6.0714	0.6585
81.5483	6.2143	0.6662
81.8592	5.9286	0.6507
82.1701	5.8571	0.6468
82.4810	6.2500	0.6588
82.7919	5.6250	0.6250
83.1029	6.7361	0.6839
83.4138	6.9863	0.6917
83.7247	8.5135	0.7584
84.0356	8.2432	0.7463
84.3466	11.0811	0.8653
84.6575	20.2000	1.1605
84.9684	22.2667	1.2184
85.2793	16.8000	1.0583
85.5902	11.4667	0.8743
85.9012	8.2051	0.7252
86.2121	6.3462	0.6378
86.5230	5.9615	0.6182
86.8339	6.8590	0.6631
87.1448	5.4375	0.5830
87.4558	6.3125	0.6281
87.7667	7.1250	0.6673
88.0776	6.1875	0.6219
88.3885	7.9012	0.6984
88.6994	7.1605	0.6648
89.0104	6.0494	0.6111
89.3213	6.4198	0.6295
89.6322	6.7857	0.6355
89.9431	5.8333	0.5893
90.2541	6.3095	0.6128
90.5650	6.7262	0.6327
90.8759	6.5294	0.6197
91.1868	7.2353	0.6524
91.4977	7.0588	0.6444
91.8087	6.0227	0.5850
92.1196	7.2727	0.6428
92.4305	7.6705	0.6602
92.7414	6.5909	0.6120
93.0523	7.5556	0.6479
93.3633	7.6111	0.6503
93.6742	7.0556	0.6261
93.9851	8.1111	0.6713
94.2960	8.2418	0.6729
94.6070	8.9560	0.7015
94.9179	7.9121	0.6593
95.2288	8.6813	0.6906
95.5397	7.9255	0.6493
95.8506	9.1489	0.6976
96.1616	9.7340	0.7196
96.4725	10.7895	0.7536
96.7834	11.7895	0.7877
97.0943	14.3158	0.8680
97.4052	18.5789	0.9889
97.7162	29.5313	1.2402
98.0271	36.6327	1.3671
98.3380	32.8061	1.2937
98.6489	24.7959	1.1248
98.9598	17.2959	0.9394
99.2708	12.9500	0.8047
99.5817	12.4500	0.7890
99.8926	12.2000	0.7810
100.2035	10.0500	0.7089
100.5145	12.2277	0.7780
100.8254	11.0396	0.7393
101.1363	10.8416	0.7326
101.4472	11.5347	0.7557
101.7581	10.8416	0.7326
102.0691	11.2981	0.7370
102.3800	10.3365	0.7049
102.6909	12.3077	0.7692
103.0018	11.2019	0.7339
103.3127	12.8095	0.7810
103.6237	12.4762	0.7708
103.9346	11.5714	0.7423
104.2455	12.3333	0.7664
104.5564	13.5714	0.8039
104.8674	12.7778	0.7691
105.1783	12.2222	0.7522
105.4892	12.0370	0.7465
105.8001	14.1204	0.8085
106.1110	13.2569	0.7798
106.4220	13.4545	0.7820
106.7329	13.4545	0.7820
107.0438	12.0000	0.7385
107.3547	13.0000	0.7687
107.6656	12.3182	0.7483
107.9766	12.5676	0.7524
108.2875	13.6937	0.7854
108.5984	12.5225	0.7511
108.9093	14.4712	0.8341
109.2202	13.8830	0.8593
109.5312	13.3735	0.8976
109.8421	13.2639	0.9597
109.9834	13.2090	0.9928