File: XRD/SPS/10_W0.40Ta0.40Cr0.10Ti0.10_SPS1400C_txt.txt
1.544427
20.2968	51.0000	2.3805
20.6077	42.7778	2.1802
20.9186	47.2632	2.2305
21.2296	44.4211	2.1624
21.5405	46.9000	2.1656
21.8514	39.8000	1.9950
22.1623	41.6000	2.0396
22.4732	44.6000	2.1119
22.7842	42.5000	2.0616
23.0951	36.9000	1.9209
23.4060	37.0000	1.9235
23.7169	41.4000	2.0347
24.0278	39.9000	1.9975
24.3388	39.1000	1.9774
24.6497	37.2000	1.9287
24.9606	39.3000	1.9824
25.2715	35.8095	1.8467
25.5824	37.9048	1.9000
25.8934	37.7273	1.8520
26.2043	35.7273	1.8022
26.5152	33.0000	1.7321
26.8261	32.2727	1.7129
27.1371	31.0000	1.6787
27.4480	36.4545	1.8205
27.7589	32.6364	1.7225
28.0698	32.0000	1.7056
28.3807	28.8182	1.6186
28.6917	32.3636	1.7153
29.0026	30.6364	1.6689
29.3135	33.4545	1.7439
29.6244	28.0000	1.5604
29.9353	29.8261	1.6105
30.2463	31.8333	1.6287
30.5572	30.6667	1.5986
30.8681	29.0833	1.5568
31.1790	30.0000	1.5811
31.4900	30.6667	1.5986
31.8009	27.0833	1.5023
32.1118	28.9167	1.5523
32.4227	29.6667	1.5723
32.7336	26.2500	1.4790
33.0446	25.2500	1.4506
33.3555	22.9167	1.3819
33.6664	25.0833	1.4458
33.9773	26.0000	1.4422
34.2882	22.4800	1.3410
34.5992	25.7692	1.4079
34.9101	26.5385	1.4288
35.2210	29.5385	1.5074
35.5319	24.2308	1.3652
35.8428	26.9231	1.4391
36.1538	26.3846	1.4246
36.4647	28.8462	1.4896
36.7756	25.9231	1.4121
37.0865	26.4615	1.4267
37.3975	25.4615	1.3995
37.7084	25.4615	1.3995
38.0193	32.4615	1.5802
38.3302	41.7037	1.7576
38.6411	76.6667	2.3831
38.9521	171.2593	3.5617
39.2630	261.7857	4.3242
39.5739	260.3571	4.3124
39.8848	258.2857	4.2952
40.1957	337.0714	4.9068
40.5067	89.7143	2.5314
40.8176	39.7857	1.6858
41.1285	31.3571	1.4966
41.4394	25.2143	1.3420
41.7504	27.4286	1.3997
42.0613	25.9286	1.3609
42.3722	24.7857	1.3306
42.6831	24.4828	1.2994
42.9940	24.4828	1.2994
43.3050	22.4828	1.2452
43.6159	21.2000	1.1888
43.9268	18.9333	1.1235
44.2377	20.6000	1.1719
44.5486	19.2000	1.1314
44.8596	18.3333	1.1055
45.1705	19.2000	1.1314
45.4814	20.0000	1.1547
45.7923	18.2667	1.1035
46.1032	17.5333	1.0812
46.4142	19.7333	1.1470
46.7251	17.7419	1.0699
47.0360	15.5484	1.0016
47.3469	18.2581	1.0853
47.6579	17.8125	1.0551
47.9688	16.4375	1.0136
48.2797	17.6875	1.0514
48.5906	15.3125	0.9783
48.9015	15.1250	0.9723
49.2125	14.5000	0.9520
49.5234	15.1875	0.9743
49.8343	14.8750	0.9642
50.1452	17.0000	1.0308
50.4561	15.9375	0.9980
50.7671	13.5758	0.9071
51.0780	14.3636	0.9330
51.3889	13.5758	0.9071
51.6998	14.3529	0.9189
52.0107	15.2353	0.9467
52.3217	13.7647	0.8998
52.6326	13.8824	0.9037
52.9435	14.5882	0.9264
53.2544	16.1765	0.9755
53.5654	13.0588	0.8765
53.8763	13.9412	0.9056
54.1872	14.3529	0.9189
54.4981	15.1176	0.9430
54.8090	14.8000	0.9196
55.1200	16.5714	0.9731
55.4309	16.0000	0.9562
55.7418	20.5000	1.0672
56.0527	28.5556	1.2595
56.3636	37.2778	1.4391
56.6746	47.2778	1.6207
56.9855	48.5556	1.6424
57.2964	51.9444	1.6988
57.6073	52.1111	1.7015
57.9183	48.9444	1.6490
58.2292	61.8333	1.8534
58.5401	27.3514	1.2159
58.8510	17.1892	0.9639
59.1619	15.8378	0.9253
59.4729	14.0000	0.8699
59.7838	13.7895	0.8519
60.0947	14.0000	0.8584
60.4056	12.6842	0.8171
60.7165	13.1579	0.8322
61.0275	13.2632	0.8355
61.3384	11.7895	0.7877
61.6493	12.3158	0.8051
61.9602	14.0526	0.8600
62.2711	14.5263	0.8744
62.5821	11.2821	0.7606
62.8930	13.1795	0.8221
63.2039	11.3333	0.7624
63.5148	13.2821	0.8253
63.8258	15.0732	0.8575
64.1367	12.9756	0.7956
64.4476	12.5854	0.7835
64.7585	13.1707	0.8015
65.0694	13.1163	0.7811
65.3804	11.5349	0.7325
65.6913	12.0000	0.7471
66.0022	11.8636	0.7343
66.3131	12.8889	0.7569
66.6240	13.4222	0.7724
66.9350	12.9333	0.7582
67.2459	11.3617	0.6953
67.5568	11.9149	0.7121
67.8677	11.0638	0.6861
68.1787	13.3617	0.7540
68.4896	11.7551	0.6927
68.8005	12.2857	0.7081
69.1114	13.6327	0.7459
69.4223	14.7755	0.7766
69.7333	14.4314	0.7523
70.0442	18.7843	0.8583
70.3551	22.8627	0.9469
70.6660	29.8462	1.0714
70.9769	35.4340	1.1563
71.2879	42.5283	1.2668
71.5988	38.9811	1.2128
71.9097	40.3333	1.2222
72.2206	39.4545	1.1978
72.5315	39.9273	1.2049
72.8425	44.9091	1.2779
73.1534	55.0000	1.4015
73.4643	32.3158	1.0648
73.7752	17.7193	0.7885
74.0862	14.2807	0.7079
74.3971	13.9655	0.6940
74.7080	12.5424	0.6520
75.0189	12.0339	0.6387
75.3298	11.5254	0.6251
75.6408	11.9333	0.6307
75.9517	11.7705	0.6212
76.2626	11.5410	0.6151
76.5735	11.6129	0.6121
76.8844	10.9355	0.5939
77.1954	11.3968	0.6015
77.5063	10.9841	0.5905
77.8172	11.4375	0.5978
78.1281	11.8438	0.6084
78.4390	11.4769	0.5943
78.7500	10.5846	0.5707
79.0609	10.9697	0.5766
79.3718	11.0909	0.5797
79.6827	10.5075	0.5600
79.9937	11.6716	0.5903
80.3046	10.5588	0.5573
80.6155	11.4118	0.5793
80.9264	9.4493	0.5233
81.2373	10.5714	0.5496
81.5483	11.3143	0.5686
81.8592	11.4286	0.5714
82.1701	11.2676	0.5634
82.4810	11.8333	0.5733
82.7919	12.2222	0.5827
83.1029	12.4444	0.5879
83.4138	14.2192	0.6242
83.7247	16.6486	0.6708
84.0356	18.3243	0.7037
84.3466	19.5135	0.7262
84.6575	21.2267	0.7524
84.9684	20.0263	0.7260
85.2793	20.8684	0.7411
85.5902	20.7105	0.7383
85.9012	21.3846	0.7405
86.2121	21.5641	0.7436
86.5230	21.3333	0.7396
86.8339	28.4615	0.8543
87.1448	23.1500	0.7608
87.4558	15.0000	0.6124
87.7667	12.2750	0.5540
88.0776	10.6250	0.5154
88.3885	11.0244	0.5185
88.6994	10.2439	0.4999
89.0104	10.3415	0.5022
89.3213	10.3902	0.5034
89.6322	10.8810	0.5090
89.9431	10.1429	0.4914
90.2541	9.9048	0.4856
90.5650	11.0000	0.5118
90.8759	9.9302	0.4806
91.1868	10.2326	0.4878
91.4977	11.1163	0.5084
91.8087	10.0682	0.4784
92.1196	10.6591	0.4922
92.4305	11.0000	0.5000
92.7414	11.0227	0.5005
93.0523	10.3778	0.4802
93.3633	10.6889	0.4874
93.6742	10.8667	0.4914
93.9851	12.4222	0.5254
94.2960	11.8913	0.5084
94.6070	11.9783	0.5103
94.9179	12.1087	0.5131
95.2288	13.0000	0.5316
95.5397	14.6596	0.5585
95.8506	15.3191	0.5709
96.1616	16.8723	0.5992
96.4725	19.1368	0.6347
96.7834	21.8958	0.6754
97.0943	24.6667	0.7169
97.4052	25.5625	0.7298
97.7162	26.1443	0.7342
98.0271	25.0816	0.7155
98.3380	26.7551	0.7389
98.6489	27.4082	0.7479
98.9598	26.0408	0.7290
99.2708	29.1000	0.7629
99.5817	27.4000	0.7403
99.8926	27.7200	0.7446
100.2035	30.2200	0.7774
100.5145	36.1373	0.8418
100.8254	31.0392	0.7801
101.1363	20.2549	0.6302
101.4472	14.7843	0.5384
101.7581	13.4706	0.5139
102.0691	13.0000	0.5000
102.3800	12.2500	0.4854
102.6909	12.0577	0.4815
103.0018	12.1154	0.4827
103.3127	12.5143	0.4882
103.6237	12.2264	0.4803
103.9346	11.4340	0.4645
104.2455	11.5283	0.4664
104.5564	11.4717	0.4652
104.8674	11.6296	0.4641
105.1783	11.7407	0.4663
105.4892	11.4815	0.4611
105.8001	11.0556	0.4525
106.1110	11.9633	0.4685
106.4220	11.9818	0.4667
106.7329	12.7273	0.4810
107.0438	11.2909	0.4531
107.3547	11.5818	0.4589
107.6656	11.4775	0.4548
107.9766	11.4643	0.4525
108.2875	11.3214	0.4496
108.5984	11.0893	0.4450
108.9093	11.6154	0.4726
109.2202	12.5745	0.5172
109.5312	11.8313	0.5339
109.8421	13.0833	0.6028
109.9834	12.1791	0.6030