File: XRD/SPS/7_W0.35Ta0.40Cr0.25_SPS1400C.xye
/* W35Ta40Cr25-SPS; 2ÆŸ 20.00-110.00 by 0.014, dwell 0 s; 20-110 1-2-0.2 - 24_03_31_0015_7-W35Ta40Cr25-SPS-1.xml; count; KAlpha1 1.540593; */
20.0141	1093	33.0606
20.3251	1384	37.2022
20.6360	1560	39.4968
20.9469	1779	42.1782
21.2578	2024	44.9889
21.5687	2151	46.3789
21.8797	2244	47.3709
22.1906	2107	45.9021
22.5015	1999	44.7102
22.8124	2029	45.0444
23.1233	1876	43.3128
23.4343	1829	42.7668
23.7452	1857	43.0929
24.0561	1797	42.3910
24.3670	1796	42.3792
24.6780	1760	41.9524
24.9889	1750	41.8330
25.2998	1666	40.8167
25.6107	1730	41.5933
25.9216	1723	41.5090
26.2326	1640	40.4969
26.5435	1679	40.9756
26.8544	1707	41.3159
27.1653	1505	38.7943
27.4762	1557	39.4588
27.7872	1593	39.9124
28.0981	1522	39.0128
28.4090	1583	39.7869
28.7199	1498	38.7040
29.0308	1508	38.8330
29.3418	1460	38.2099
29.6527	1428	37.7889
29.9636	1476	38.4187
30.2745	1391	37.2961
30.5855	1367	36.9730
30.8964	1437	37.9078
31.2073	1401	37.4299
31.5182	1332	36.4966
31.8291	1335	36.5377
32.1401	1321	36.3456
32.4510	1324	36.3868
32.7619	1240	35.2136
33.0728	1326	36.4143
33.3837	1314	36.2491
33.6947	1264	35.5528
34.0056	1221	34.9428
34.3165	1214	34.8425
34.6274	1290	35.9166
34.9383	1414	37.6032
35.2493	1458	38.1838
35.5602	1574	39.6737
35.8711	2040	45.1664
36.1820	2396	48.9490
36.4930	2038	45.1442
36.8039	1680	40.9878
37.1148	1598	39.9750
37.4257	1642	40.5216
37.7366	1906	43.6578
38.0476	3024	54.9909
38.3585	6833	82.6620
38.6694	8862	94.1382
38.9803	5542	74.4446
39.2912	3437	58.6259
39.6022	2685	51.8170
39.9131	3450	58.7367
40.2240	16711	129.2710
40.5349	3913	62.5540
40.8459	1878	43.3359
41.1568	1528	39.0896
41.4677	1559	39.4842
41.7786	1700	41.2311
42.0895	1960	44.2719
42.4005	2676	51.7301
42.7114	2867	53.5444
43.0223	2149	46.3573
43.3332	1789	42.2966
43.6441	1458	38.1838
43.9551	1295	35.9861
44.2660	1261	35.5106
44.5769	1251	35.3695
44.8878	1128	33.5857
45.1987	1024	32.0000
45.5097	929.0000	30.4795
45.8206	925.0000	30.4138
46.1315	905.0000	30.0832
46.4424	887.0000	29.7825
46.7534	793.0000	28.1603
47.0643	853.0000	29.2062
47.3752	791.0000	28.1247
47.6861	801.0000	28.3019
47.9970	749.0000	27.3679
48.3080	809.0000	28.4429
48.6189	742.0000	27.2397
48.9298	800.0000	28.2843
49.2407	741.0000	27.2213
49.5516	770.0000	27.7489
49.8626	710.0000	26.6458
50.1735	699.0000	26.4386
50.4844	720.0000	26.8328
50.7953	695.0000	26.3629
51.1063	724.0000	26.9072
51.4172	694.0000	26.3439
51.7281	659.0000	25.6710
52.0390	693.0000	26.3249
52.3499	736.0000	27.1293
52.6609	710.0000	26.6458
52.9718	689.0000	26.2488
53.2827	728.0000	26.9815
53.5936	648.0000	25.4558
53.9045	716.0000	26.7582
54.2155	803.0000	28.3373
54.5264	864.0000	29.3939
54.8373	1058	32.5269
55.1482	1298	36.0278
55.4591	1491	38.6135
55.7701	1534	39.1663
56.0810	1377	37.1080
56.3919	1131	33.6303
56.7028	1012	31.8119
57.0138	916.0000	30.2655
57.3247	849.0000	29.1376
57.6356	891.0000	29.8496
57.9465	1323	36.3731
58.2574	3159	56.2050
58.5684	1224	34.9857
58.8793	787.0000	28.0535
59.1902	674.0000	25.9615
59.5011	645.0000	25.3969
59.8120	686.0000	26.1916
60.1230	667.0000	25.8263
60.4339	618.0000	24.8596
60.7448	626.0000	25.0200
61.0557	650.0000	25.4951
61.3667	654.0000	25.5734
61.6776	669.0000	25.8650
61.9885	649.0000	25.4755
62.2994	649.0000	25.4755
62.6103	632.0000	25.1396
62.9213	691.0000	26.2869
63.2322	668.0000	25.8457
63.5431	680.0000	26.0768
63.8540	656.0000	25.6125
64.1649	680.0000	26.0768
64.4759	721.0000	26.8514
64.7868	838.0000	28.9482
65.0977	829.0000	28.7924
65.4086	789.0000	28.0891
65.7195	757.0000	27.5136
66.0305	741.0000	27.2213
66.3414	719.0000	26.8142
66.6523	712.0000	26.6833
66.9632	723.0000	26.8887
67.2742	727.0000	26.9629
67.5851	737.0000	27.1477
67.8960	748.0000	27.3496
68.2069	865.0000	29.4109
68.5178	901.0000	30.0167
68.8288	1162	34.0881
69.1397	1487	38.5616
69.4506	1966	44.3396
69.7615	2110	45.9347
70.0724	1758	41.9285
70.3834	1397	37.3765
70.6943	1143	33.8083
71.0052	950.0000	30.8221
71.3161	878.0000	29.6311
71.6270	840.0000	28.9828
71.9380	771.0000	27.7669
72.2489	789.0000	28.0891
72.5598	937.0000	30.6105
72.8707	1687	41.0731
73.1817	3207	56.6304
73.4926	1623	40.2865
73.8035	869.0000	29.4788
74.1144	728.0000	26.9815
74.4253	650.0000	25.4951
74.7363	652.0000	25.5343
75.0472	615.0000	24.7992
75.3581	626.0000	25.0200
75.6690	649.0000	25.4755
75.9799	694.0000	26.3439
76.2909	702.0000	26.4953
76.6018	724.0000	26.9072
76.9127	731.0000	27.0370
77.2236	652.0000	25.5343
77.5346	602.0000	24.5357
77.8455	618.0000	24.8596
78.1564	584.0000	24.1661
78.4673	576.0000	24.0000
78.7782	528.0000	22.9783
79.0892	533.0000	23.0868
79.4001	574.0000	23.9583
79.7110	569.0000	23.8537
80.0219	542.0000	23.2809
80.3328	599.0000	24.4745
80.6438	593.0000	24.3516
80.9547	619.0000	24.8797
81.2656	568.0000	23.8328
81.5765	640.0000	25.2982
81.8874	620.0000	24.8998
82.1984	728.0000	26.9815
82.5093	836.0000	28.9137
82.8202	842.0000	29.0172
83.1311	758.0000	27.5318
83.4421	741.0000	27.2213
83.7530	655.0000	25.5930
84.0639	629.0000	25.0799
84.3748	571.0000	23.8956
84.6857	550.0000	23.4521
84.9967	630.0000	25.0998
85.3076	583.0000	24.1454
85.6185	603.0000	24.5561
85.9294	627.0000	25.0400
86.2403	647.0000	25.4362
86.5513	862.0000	29.3598
86.8622	1487	38.5616
87.1731	1245	35.2846
87.4840	794.0000	28.1780
87.7950	605.0000	24.5967
88.1059	571.0000	23.8956
88.4168	595.0000	24.3926
88.7277	580.0000	24.0832
89.0386	532.0000	23.0651
89.3496	552.0000	23.4947
89.6605	624.0000	24.9800
89.9714	521.0000	22.8254
90.2823	599.0000	24.4745
90.5932	585.0000	24.1868
90.9042	565.0000	23.7697
91.2151	572.0000	23.9165
91.5260	580.0000	24.0832
91.8369	622.0000	24.9399
92.1478	572.0000	23.9165
92.4588	617.0000	24.8395
92.7697	594.0000	24.3721
93.0806	587.0000	24.2281
93.3915	623.0000	24.9600
93.7025	698.0000	26.4197
94.0134	707.0000	26.5895
94.3243	800.0000	28.2843
94.6352	846.0000	29.0861
94.9461	909.0000	30.1496
95.2571	871.0000	29.5127
95.5680	835.0000	28.8964
95.8789	827.0000	28.7576
96.1898	733.0000	27.0740
96.5007	700.0000	26.4575
96.8117	659.0000	25.6710
97.1226	660.0000	25.6905
97.4335	621.0000	24.9199
97.7444	520.0000	22.8035
98.0553	578.0000	24.0416
98.3663	576.0000	24.0000
98.6772	541.0000	23.2594
98.9881	601.0000	24.5153
99.2990	574.0000	23.9583
99.6100	612.0000	24.7386
99.9209	747.0000	27.3313
100.2318	1205	34.7131
100.5427	1993	44.6430
100.8536	1611	40.1373
101.1646	936.0000	30.5941
101.4755	647.0000	25.4362
101.7864	600.0000	24.4949
102.0973	483.0000	21.9773
102.4082	584.0000	24.1661
102.7192	503.0000	22.4277
103.0301	545.0000	23.3452
103.3410	517.0000	22.7376
103.6519	488.0000	22.0907
103.9629	550.0000	23.4521
104.2738	505.0000	22.4722
104.5847	517.0000	22.7376
104.8956	529.0000	23.0000
105.2065	524.0000	22.8910
105.5175	511.0000	22.6053
105.8284	491.0000	22.1585
106.1393	525.0000	22.9129
106.4502	525.0000	22.9129
106.7611	523.0000	22.8692
107.0721	596.0000	24.4131
107.3830	598.0000	24.4540
107.6939	578.0000	24.0416
108.0048	629.0000	25.0799
108.3157	620.0000	24.8998
108.6267	619.0000	24.8797
108.9376	612.0000	24.7386
109.2485	645.0000	25.3969
109.5594	667.0000	25.8263
109.8704	649.0000	25.4755
110.0117	640.0000	25.2982