File: XRD/SPS/9_W0.40Ta0.40Ti0.20_SPS1400C_txt.txt
1.544427
20.2968	50.3333	2.3649
20.6077	48.3333	2.3174
20.9186	46.2105	2.2055
21.2296	45.0526	2.1777
21.5405	46.6000	2.1587
21.8514	46.1000	2.1471
22.1623	41.9000	2.0469
22.4732	44.4000	2.1071
22.7842	45.0000	2.1213
23.0951	39.0000	1.9748
23.4060	43.2000	2.0785
23.7169	41.0000	2.0248
24.0278	39.5000	1.9875
24.3388	37.3000	1.9313
24.6497	35.2000	1.8762
24.9606	34.6000	1.8601
25.2715	37.2381	1.8832
25.5824	34.5714	1.8145
25.8934	35.5455	1.7976
26.2043	35.7273	1.8022
26.5152	34.6364	1.7745
26.8261	36.4545	1.8205
27.1371	31.7273	1.6983
27.4480	32.7273	1.7249
27.7589	31.8182	1.7008
28.0698	32.7273	1.7249
28.3807	31.7273	1.6983
28.6917	31.3636	1.6886
29.0026	32.5455	1.7201
29.3135	32.6364	1.7225
29.6244	30.2609	1.6222
29.9353	27.4783	1.5458
30.2463	29.1667	1.5590
30.5572	24.6667	1.4337
30.8681	27.2500	1.5069
31.1790	26.5833	1.4884
31.4900	28.7500	1.5478
31.8009	27.0833	1.5023
32.1118	27.0833	1.5023
32.4227	28.0833	1.5298
32.7336	27.7500	1.5207
33.0446	25.2500	1.4506
33.3555	27.5000	1.5138
33.6664	24.7500	1.4361
33.9773	26.6400	1.4599
34.2882	24.6400	1.4040
34.5992	26.3846	1.4246
34.9101	27.8462	1.4636
35.2210	25.8462	1.4100
35.5319	23.2308	1.3368
35.8428	26.9231	1.4391
36.1538	26.1538	1.4184
36.4647	25.3846	1.3974
36.7756	23.0769	1.3323
37.0865	26.0769	1.4163
37.3975	28.5385	1.4816
37.7084	31.1538	1.5480
38.0193	36.7692	1.6818
38.3302	65.4074	2.2011
38.6411	283.4074	4.5818
38.9521	216.6667	4.0062
39.2630	164.7143	3.4301
39.5739	175.1429	3.5370
39.8848	203.4286	3.8119
40.1957	193.7143	3.7198
40.5067	84.1429	2.4516
40.8176	32.2143	1.5169
41.1285	25.7143	1.3553
41.4394	25.5000	1.3496
41.7504	22.9286	1.2797
42.0613	23.1429	1.2857
42.3722	21.2143	1.2310
42.6831	21.1034	1.2064
42.9940	22.2759	1.2395
43.3050	20.0690	1.1765
43.6159	21.6000	1.2000
43.9268	19.8000	1.1489
44.2377	19.4000	1.1372
44.5486	19.0667	1.1274
44.8596	19.4667	1.1392
45.1705	17.7333	1.0873
45.4814	18.0000	1.0954
45.7923	16.2667	1.0414
46.1032	18.8000	1.1195
46.4142	20.6667	1.1738
46.7251	17.4839	1.0621
47.0360	17.5484	1.0640
47.3469	16.3226	1.0262
47.6579	17.6875	1.0514
47.9688	17.4375	1.0440
48.2797	18.1250	1.0643
48.5906	16.9375	1.0289
48.9015	15.5000	0.9843
49.2125	15.7500	0.9922
49.5234	15.0000	0.9682
49.8343	16.1250	1.0039
50.1452	15.1250	0.9723
50.4561	15.5625	0.9862
50.7671	16.1212	0.9885
51.0780	15.3939	0.9659
51.3889	15.6970	0.9754
51.6998	15.1765	0.9448
52.0107	14.7059	0.9301
52.3217	16.3529	0.9808
52.6326	13.6471	0.8960
52.9435	13.4118	0.8882
53.2544	13.7647	0.8998
53.5654	16.2353	0.9772
53.8763	15.6471	0.9594
54.1872	14.1765	0.9132
54.4981	16.4118	0.9825
54.8090	16.4000	0.9681
55.1200	19.7714	1.0629
55.4309	29.5429	1.2993
55.7418	46.9444	1.6149
56.0527	43.8333	1.5605
56.3636	33.8333	1.3710
56.6746	35.7222	1.4087
56.9855	35.3333	1.4011
57.2964	42.2222	1.5316
57.6073	43.4444	1.5536
57.9183	41.6667	1.5215
58.2292	53.6111	1.7258
58.5401	25.6216	1.1768
58.8510	18.0541	0.9879
59.1619	13.5135	0.8547
59.4729	13.6757	0.8598
59.7838	13.3158	0.8372
60.0947	12.9474	0.8255
60.4056	14.1579	0.8632
60.7165	12.7368	0.8188
61.0275	12.8421	0.8221
61.3384	12.4211	0.8085
61.6493	13.3158	0.8372
61.9602	12.3684	0.8068
62.2711	13.4211	0.8405
62.5821	12.8205	0.8108
62.8930	10.9744	0.7502
63.2039	11.4872	0.7675
63.5148	10.9744	0.7502
63.8258	11.5122	0.7494
64.1367	12.4878	0.7805
64.4476	13.1707	0.8015
64.7585	12.6829	0.7866
65.0694	12.1860	0.7529
65.3804	13.6279	0.7962
65.6913	11.7209	0.7383
66.0022	12.5000	0.7538
66.3131	11.4667	0.7139
66.6240	11.9556	0.7289
66.9350	12.8000	0.7542
67.2459	13.0638	0.7456
67.5568	12.1277	0.7184
67.8677	12.2979	0.7234
68.1787	13.0638	0.7456
68.4896	13.5102	0.7426
68.8005	13.5918	0.7448
69.1114	16.0816	0.8102
69.4223	21.7143	0.9414
69.7333	42.9804	1.2983
70.0442	58.1961	1.5107
70.3551	48.8627	1.3843
70.6660	35.6923	1.1717
70.9769	35.7736	1.1619
71.2879	35.0566	1.1502
71.5988	38.6038	1.2070
71.9097	42.0370	1.2478
72.2206	45.6364	1.2882
72.5315	46.1091	1.2949
72.8425	44.6182	1.2738
73.1534	63.3214	1.5038
73.4643	38.9474	1.1690
73.7752	17.4737	0.7830
74.0862	13.7193	0.6938
74.3971	12.2759	0.6506
74.7080	13.2881	0.6712
75.0189	12.2034	0.6432
75.3298	12.5763	0.6529
75.6408	11.4333	0.6173
75.9517	11.6721	0.6186
76.2626	12.6230	0.6433
76.5735	12.2581	0.6288
76.8844	11.3548	0.6052
77.1954	11.7143	0.6098
77.5063	11.8730	0.6139
77.8172	11.7188	0.6052
78.1281	10.8438	0.5821
78.4390	11.2000	0.5870
78.7500	10.2462	0.5615
79.0609	10.2727	0.5579
79.3718	11.3030	0.5852
79.6827	11.1642	0.5773
79.9937	9.8507	0.5423
80.3046	10.8235	0.5642
80.6155	11.1765	0.5733
80.9264	11.8841	0.5869
81.2373	10.6571	0.5518
81.5483	11.3429	0.5693
81.8592	11.8571	0.5820
82.1701	13.0141	0.6055
82.4810	15.9722	0.6661
82.7919	24.5000	0.8250
83.1029	24.3611	0.8226
83.4138	21.6164	0.7696
83.7247	19.1892	0.7202
84.0356	16.5135	0.6681
84.3466	16.4865	0.6675
84.6575	17.8133	0.6892
84.9684	17.6316	0.6812
85.2793	18.5000	0.6977
85.5902	17.4737	0.6781
85.9012	19.5385	0.7078
86.2121	18.5128	0.6890
86.5230	17.1538	0.6632
86.8339	19.5897	0.7087
87.1448	20.3000	0.7124
87.4558	14.2000	0.5958
87.7667	12.2750	0.5540
88.0776	10.8500	0.5208
88.3885	10.1707	0.4981
88.6994	11.1220	0.5208
89.0104	11.8049	0.5366
89.3213	10.4390	0.5046
89.6322	11.4762	0.5227
89.9431	10.3810	0.4972
90.2541	10.6190	0.5028
90.5650	10.8095	0.5073
90.8759	10.6977	0.4988
91.1868	10.9302	0.5042
91.4977	11.3488	0.5137
91.8087	11.0682	0.5015
92.1196	10.4545	0.4874
92.4305	10.8409	0.4964
92.7414	10.7955	0.4953
93.0523	11.4889	0.5053
93.3633	11.4667	0.5048
93.6742	11.5778	0.5072
93.9851	11.4000	0.5033
94.2960	13.0435	0.5325
94.6070	14.6087	0.5635
94.9179	18.2826	0.6304
95.2288	24.1087	0.7239
95.5397	24.9787	0.7290
95.8506	23.8723	0.7127
96.1616	21.0000	0.6684
96.4725	20.2105	0.6523
96.7834	20.2292	0.6492
97.0943	18.5833	0.6222
97.4052	18.3958	0.6191
97.7162	19.0103	0.6261
98.0271	20.1020	0.6405
98.3380	21.7755	0.6666
98.6489	21.1837	0.6575
98.9598	23.0408	0.6857
99.2708	23.3600	0.6835
99.5817	24.6800	0.7026
99.8926	23.0600	0.6791
100.2035	21.9000	0.6618
100.5145	28.0000	0.7410
100.8254	23.8235	0.6835
101.1363	17.4510	0.5850
101.4472	13.1176	0.5072
101.7581	12.2941	0.4910
102.0691	11.8654	0.4777
102.3800	11.5192	0.4707
102.6909	11.5192	0.4707
103.0018	12.3462	0.4873
103.3127	11.7905	0.4739
103.6237	11.2075	0.4599
103.9346	11.7547	0.4709
104.2455	11.4906	0.4656
104.5564	12.0377	0.4766
104.8674	10.6852	0.4448
105.1783	10.7963	0.4471
105.4892	10.9259	0.4498
105.8001	11.6667	0.4648
106.1110	11.7798	0.4649
106.4220	11.0909	0.4491
106.7329	12.2000	0.4710
107.0438	10.9273	0.4457
107.3547	12.3091	0.4731
107.6656	13.7838	0.4984
107.9766	15.6071	0.5279
108.2875	16.4821	0.5425
108.5984	15.7321	0.5300
108.9093	14.7115	0.5319
109.2202	14.2128	0.5499
109.5312	13.7108	0.5748
109.8421	13.3611	0.6092
109.9834	12.8657	0.6197